fecha de inicio :	2022-02-17
hora de inicio :	12:49:51,30418
tasa de muestreo :	100 Hz
	
tiempo desde inicio (s)	voltaje (V)
0,00000	1,25000
0,01016	1,25000
0,02032	1,24512
0,03049	1,24512
0,04065	1,25000
0,05081	1,24512
0,06097	1,23535
0,07114	1,24512
0,08130	1,24512
0,09146	1,24512
0,10162	1,25977
0,11178	1,24512
0,12195	1,24512
0,13211	1,25000
0,14227	1,24023
0,15243	1,25000
0,16259	1,24512
0,17276	1,24512
0,18292	1,24512
0,19308	1,24512
0,20324	1,24512
0,21341	1,24512
0,22357	1,24512
0,23373	1,24512
0,24389	1,24512
0,25405	1,24512
0,26422	1,24512
0,27438	1,24512
0,28454	1,25488
0,29470	1,24512
0,30487	1,25488
0,31503	1,25000
0,32519	1,25488
0,33535	1,25000
0,34551	1,24512
0,35568	1,25000
0,36584	1,24512
0,37600	1,24512
0,38616	1,25000
0,39632	1,25488
0,40649	1,24512
0,41665	1,25000
0,42681	1,24023
0,43697	1,25000
0,44714	1,24023
0,45730	1,24512
0,46746	1,25000
0,47762	1,24023
0,48778	1,24512
0,49795	1,25000
0,50811	1,25000
0,51827	1,24512
0,52843	1,24512
0,53860	1,24023
0,54876	1,24512
0,55892	1,25000
0,56908	1,24023
0,57924	1,25000
0,58941	1,25000
0,59957	1,24023
0,60973	1,25488
0,61989	1,25000
0,63005	1,23535
0,64022	1,25000
0,65038	1,24023
0,66054	1,25000
0,67070	1,25000
0,68087	1,24512
0,69103	1,25000
0,70119	1,24023
0,71135	1,24512
0,72151	1,24512
0,73168	1,24512
0,74184	1,24512
0,75200	1,24023
0,76216	1,24512
0,77233	1,24512
0,78249	1,24023
0,79265	1,25000
0,80281	1,24512
0,81297	1,24512
0,82314	1,24512
0,83330	1,24023
0,84346	1,25000
0,85362	1,24512
0,86378	1,25000
0,87395	1,24512
0,88411	1,24512
0,89427	1,24512
0,90443	1,24512
0,91460	1,24512
0,92476	1,24512
0,93492	1,24512
0,94508	1,24023
0,95524	1,24512
0,96541	1,24023
0,97557	1,24512
0,98573	1,24023
0,99589	1,25000
1,00606	1,24512
1,01622	1,24512
1,02638	1,24512
1,03654	1,25000
1,04670	1,24023
1,05687	1,24023
1,06703	1,24023
1,07719	1,25488
1,08735	1,24512
1,09752	1,24023
1,10768	1,25000
1,11784	1,25000
1,12800	1,25000
1,13816	1,24512
1,14833	1,24512
1,15849	1,24512
1,16865	1,24512
1,17881	1,24512
1,18897	1,25000
1,19914	1,24023
1,20930	1,25000
1,21946	1,25000
1,22962	1,24512
1,23979	1,25000
1,24995	1,25000
1,26011	1,24512
1,27027	1,24512
1,28043	1,24512
1,29060	1,24023
1,30076	1,24512
1,31092	1,25000
1,32108	1,24023
1,33125	1,24512
1,34141	1,24512
1,35157	1,25000
1,36173	1,24512
1,37189	1,24023
1,38206	1,24512
1,39222	1,24512
1,40238	1,24512
1,41254	1,24512
1,42270	1,24512
1,43287	1,24512
1,44303	1,24512
1,45319	1,24512
1,46335	1,24512
1,47352	1,24512
1,48368	1,24023
1,49384	1,24512
1,50400	1,24512
1,51416	1,24512
1,52433	1,25000
1,53449	1,24512
1,54465	1,25488
1,55481	1,24512
1,56498	1,24512
1,57514	1,24512
1,58530	1,24512
1,59546	1,24512
1,60562	1,25000
1,61579	1,25000
1,62595	1,24512
1,63611	1,25488
1,64627	1,25000
1,65643	1,24023
1,66660	1,24023
1,67676	1,24512
1,68692	1,24023
1,69708	1,24512
1,70725	1,24512
1,71741	1,24512
1,72757	1,25000
1,73773	1,24512
1,74789	1,24512
1,75806	1,24512
1,76822	1,24512
1,77838	1,25000
1,78854	1,24512
1,79871	1,24023
1,80887	1,25000
1,81903	1,24512
1,82919	1,24512
1,83935	1,25000
1,84952	1,24023
1,85968	1,25000
1,86984	1,24512
1,88000	1,24512
1,89016	1,24512
1,90033	1,24512
1,91049	1,24512
1,92065	1,25000
1,93081	1,24023
1,94098	1,24512
1,95114	1,24512
1,96130	1,24512
1,97146	1,25488
1,98162	1,24512
1,99179	1,25000
2,00195	1,24023
2,01211	1,24023
2,02227	1,24512
2,03244	1,23535
2,04260	1,24512
2,05276	1,24512
2,06292	1,24512
2,07308	1,24512
2,08325	1,25000
2,09341	1,24023
2,10357	1,24512
2,11373	1,24512
2,12389	1,25000
2,13406	1,24512
2,14422	1,25000
2,15438	1,25000
2,16454	1,25000
2,17471	1,24512
2,18487	1,24023
2,19503	1,25000
2,20519	1,24512
2,21535	1,24023
2,22552	1,24512
2,23568	1,24023
2,24584	1,24512
2,25600	1,24512
2,26617	1,24023
2,27633	1,24512
2,28649	1,24023
2,29665	1,24512
2,30681	1,24023
2,31698	1,24512
2,32714	1,25000
2,33730	1,24512
2,34746	1,24512
2,35762	1,25000
2,36779	1,24512
2,37795	1,24512
2,38811	1,24512
2,39827	1,25000
2,40844	1,24512
2,41860	1,24023
2,42876	1,24512
2,43892	1,24512
2,44908	1,24512
2,45925	1,24512
2,46941	1,24023
2,47957	1,24023
2,48973	1,24512
2,49990	1,24512
2,51006	1,24512
2,52022	1,25000
2,53038	1,24512
2,54054	1,25000
2,55071	1,24512
2,56087	1,25000
2,57103	1,24512
2,58119	1,24023
2,59135	1,24512
2,60152	1,24512
2,61168	1,25000
2,62184	1,24512
2,63200	1,24023
2,64217	1,24512
2,65233	1,25000
2,66249	1,25000
2,67265	1,24512
2,68281	1,24023
2,69298	1,24512
2,70314	1,24512
2,71330	1,24512
2,72346	1,24023
2,73363	1,24023
2,74379	1,25488
2,75395	1,24512
2,76411	1,25000
2,77427	1,24512
2,78444	1,24023
2,79460	1,24512
2,80476	1,24512
2,81492	1,24023
2,82508	1,25000
2,83525	1,24512
2,84541	1,24512
2,85557	1,24023
2,86573	1,25000
2,87590	1,24512
2,88606	1,24512
2,89622	1,24512
2,90638	1,25000
2,91654	1,24512
2,92671	1,25000
2,93687	1,24512
2,94703	1,25000
2,95719	1,24512
2,96736	1,25000
2,97752	1,24512
2,98768	1,24023
2,99784	1,24512
3,00800	1,24512
3,01817	1,24512
3,02833	1,24023
3,03849	1,24512
3,04865	1,24023
3,05882	1,24512
3,06898	1,24512
3,07914	1,24512
3,08930	1,24512
3,09946	1,24512
3,10963	1,24512
3,11979	1,24512
3,12995	1,24512
3,14011	1,24512
3,15027	1,24512
3,16044	1,24023
3,17060	1,24512
3,18076	1,25000
3,19092	1,24512
3,20109	1,25488
3,21125	1,24512
3,22141	1,24023
3,23157	1,24023
3,24173	1,24512
3,25190	1,24023
3,26206	1,24512
3,27222	1,24023
3,28238	1,24512
3,29255	1,24512
3,30271	1,24023
3,31287	1,24512
3,32303	1,24023
3,33319	1,24512
3,34336	1,24512
3,35352	1,24512
3,36368	1,25000
3,37384	1,25000
3,38400	1,24023
3,39417	1,25000
3,40433	1,24512
3,41449	1,24512
3,42465	1,24512
3,43482	1,24023
3,44498	1,24023
3,45514	1,25000
3,46530	1,24512
3,47546	1,24512
3,48563	1,24512
3,49579	1,24512
3,50595	1,24512
3,51611	1,24512
3,52628	1,25000
3,53644	1,24512
3,54660	1,24512
3,55676	1,25488
3,56692	1,24512
3,57709	1,24512
3,58725	1,24512
3,59741	1,24512
3,60757	1,24512
3,61773	1,24512
3,62790	1,24512
3,63806	1,24512
3,64822	1,24512
3,65838	1,24512
3,66855	1,25000
3,67871	1,24023
3,68887	1,24512
3,69903	1,24512
3,70919	1,25000
3,71936	1,25000
3,72952	1,24512
3,73968	1,25000
3,74984	1,24512
3,76001	1,24512
3,77017	1,25000
3,78033	1,24512
3,79049	1,24512
3,80065	1,25000
3,81082	1,24512
3,82098	1,25000
3,83114	1,24512
3,84130	1,25000
3,85146	1,24512
3,86163	1,24023
3,87179	1,24512
3,88195	1,24512
3,89211	1,24512
3,90228	1,24512
3,91244	1,24512
3,92260	1,24023
3,93276	1,24023
3,94292	1,25000
3,95309	1,24512
3,96325	1,24512
3,97341	1,24512
3,98357	1,24023
3,99374	1,25488
4,00390	1,24512
4,01406	1,24023
4,02422	1,24512
4,03438	1,24512
4,04455	1,24512
4,05471	1,24512
4,06487	1,24512
4,07503	1,24512
4,08519	1,24512
4,09536	1,25000
4,10552	1,24512
4,11568	1,25000
4,12584	1,24512
4,13601	1,24512
4,14617	1,24512
4,15633	1,25000
4,16649	1,25000
4,17665	1,25000
4,18682	1,24023
4,19698	1,24512
4,20714	1,25000
4,21730	1,24023
4,22747	1,25000
4,23763	1,25000
4,24779	1,24512
4,25795	1,24512
4,26811	1,24023
4,27828	1,24512
4,28844	1,24512
4,29860	1,24512
4,30876	1,25488
4,31892	1,24512
4,32909	1,24512
4,33925	1,25000
4,34941	1,24512
4,35957	1,24512
4,36974	1,25000
4,37990	1,25000
4,39006	1,24512
4,40022	1,24512
4,41038	1,24512
4,42055	1,24023
4,43071	1,24512
4,44087	1,24512
4,45103	1,24512
4,46120	1,24512
4,47136	1,25000
4,48152	1,24512
4,49168	1,24512
4,50184	1,24512
4,51201	1,24512
4,52217	1,24023
4,53233	1,24512
4,54249	1,24512
4,55265	1,24512
4,56282	1,24512
4,57298	1,24512
4,58314	1,24512
4,59330	1,25000
4,60347	1,25000
4,61363	1,24512
4,62379	1,25000
4,63395	1,24512
4,64411	1,25000
4,65428	1,25000
4,66444	1,25000
4,67460	1,24512
4,68476	1,25488
4,69493	1,24023
4,70509	1,24512
4,71525	1,24512
4,72541	1,25000
4,73557	1,25000
4,74574	1,24023
4,75590	1,25000
4,76606	1,24512
4,77622	1,25000
4,78638	1,24512
4,79655	1,24512
4,80671	1,24512
4,81687	1,24023
4,82703	1,25000
4,83720	1,24512
4,84736	1,24023
4,85752	1,25000
4,86768	1,24512
4,87784	1,24512
4,88801	1,24512
4,89817	1,24512
4,90833	1,24512
4,91849	1,25000
4,92866	1,24512
4,93882	1,24512
4,94898	1,24512
4,95914	1,24512
4,96930	1,24512
4,97947	1,24512
4,98963	1,25000
4,99979	1,24512
5,00995	1,24023
5,02012	1,24512
5,03028	1,24023
5,04044	1,24512
5,05060	1,24512
5,06076	1,24512
5,07093	1,24512
5,08109	1,24512
5,09125	1,25000
5,10141	1,25000
5,11157	1,24512
5,12174	1,24512
5,13190	1,24023
5,14206	1,25000
5,15222	1,24512
5,16239	1,24023
5,17255	1,25000
5,18271	1,24512
5,19287	1,25000
5,20303	1,24512
5,21320	1,24512
5,22336	1,24512
5,23352	1,24023
5,24368	1,24512
5,25385	1,24512
5,26401	1,24023
5,27417	1,25000
5,28433	1,24023
5,29449	1,25000
5,30466	1,24512
5,31482	1,24023
5,32498	1,24512
5,33514	1,25000
5,34530	1,24512
5,35547	1,24512
5,36563	1,24512
5,37579	1,24512
5,38595	1,24512
5,39612	1,24512
5,40628	1,24512
5,41644	1,24512
5,42660	1,24512
5,43676	1,25000
5,44693	1,24512
5,45709	1,25000
5,46725	1,24512
5,47741	1,24512
5,48758	1,24512
5,49774	1,25000
5,50790	1,24512
5,51806	1,24512
5,52822	1,24512
5,53839	1,24512
5,54855	1,25000
5,55871	1,24512
5,56887	1,25000
5,57903	1,24512
5,58920	1,25977
5,59936	1,24023
5,60952	1,25000
5,61968	1,25488
5,62985	1,25000
5,64001	1,25488
5,65017	1,24512
5,66033	1,24512
5,67049	1,25000
5,68066	1,23535
5,69082	1,25000
5,70098	1,23535
5,71114	1,24512
5,72131	1,24512
5,73147	1,24512
5,74163	1,25000
5,75179	1,24512
5,76195	1,24512
5,77212	1,24512
5,78228	1,25488
5,79244	1,25000
5,80260	1,24512
5,81276	1,24512
5,82293	1,25000
5,83309	1,24512
5,84325	1,24512
5,85341	1,25000
5,86358	1,24512
5,87374	1,24023
5,88390	1,25000
5,89406	1,24512
5,90422	1,24512
5,91439	1,24512
5,92455	1,24512
5,93471	1,24023
5,94487	1,25000
5,95504	1,25488
5,96520	1,25000
5,97536	1,25000
5,98552	1,24512
5,99568	1,24512
6,00585	1,25000
6,01601	1,25000
6,02617	1,24512
6,03633	1,24023
6,04649	1,24512
6,05666	1,25977
6,06682	1,24512
6,07698	1,24512
6,08714	1,24512
6,09731	1,24512
6,10747	1,25000
6,11763	1,24512
6,12779	1,25000
6,13795	1,25000
6,14812	1,24512
6,15828	1,24512
6,16844	1,24512
6,17860	1,25000
6,18877	1,25488
6,19893	1,24512
6,20909	1,24512
6,21925	1,24512
6,22941	1,24512
6,23958	1,24512
6,24974	1,24023
6,25990	1,25488
6,27006	1,24023
6,28022	1,24512
6,29039	1,24512
6,30055	1,25000
6,31071	1,24512
6,32087	1,24512
6,33104	1,24023
6,34120	1,25000
6,35136	1,24512
6,36152	1,24512
6,37168	1,25000
6,38185	1,24023
6,39201	1,25488
6,40217	1,25000
6,41233	1,24512
6,42250	1,24512
6,43266	1,24512
6,44282	1,25000
6,45298	1,24512
6,46314	1,25000
6,47331	1,25000
6,48347	1,24512
6,49363	1,25000
6,50379	1,24512
6,51395	1,24512
6,52412	1,24512
6,53428	1,24023
6,54444	1,24512
6,55460	1,24512
6,56477	1,24023
6,57493	1,24512
6,58509	1,24023
6,59525	1,24512
6,60541	1,24023
6,61558	1,24512
6,62574	1,25000
6,63590	1,25000
6,64606	1,25000
6,65623	1,24512
6,66639	1,24512
6,67655	1,25000
6,68671	1,25000
6,69687	1,24512
6,70704	1,25000
6,71720	1,24512
6,72736	1,24512
6,73752	1,25000
6,74768	1,24512
6,75785	1,24512
6,76801	1,25000
6,77817	1,24023
6,78833	1,25000
6,79850	1,25488
6,80866	1,24512
6,81882	1,24512
6,82898	1,24512
6,83914	1,25000
6,84931	1,24023
6,85947	1,25000
6,86963	1,24512
6,87979	1,25000
6,88996	1,25000
6,90012	1,24023
6,91028	1,24023
6,92044	1,25000
6,93060	1,24023
6,94077	1,25000
6,95093	1,24512
6,96109	1,24512
6,97125	1,24512
6,98141	1,24512
6,99158	1,24512
7,00174	1,24023
7,01190	1,24023
7,02206	1,25000
7,03223	1,24512
7,04239	1,25000
7,05255	1,24023
7,06271	1,24512
7,07287	1,25000
7,08304	1,25000
7,09320	1,25977
7,10336	1,24512
7,11352	1,24023
7,12369	1,25000
7,13385	1,24023
7,14401	1,25000
7,15417	1,24512
7,16433	1,25000
7,17450	1,25000
7,18466	1,24512
7,19482	1,25000
7,20498	1,25488
7,21515	1,24512
7,22531	1,24512
7,23547	1,24512
7,24563	1,24512
7,25579	1,25000
7,26596	1,24512
7,27612	1,24512
7,28628	1,25000
7,29644	1,24512
7,30660	1,25000
7,31677	1,24512
7,32693	1,24512
7,33709	1,25488
7,34725	1,24512
7,35742	1,24512
7,36758	1,24512
7,37774	1,25000
7,38790	1,24512
7,39806	1,24512
7,40823	1,24512
7,41839	1,24023
7,42855	1,25000
7,43871	1,24512
7,44888	1,24512
7,45904	1,25000
7,46920	1,24512
7,47936	1,25000
7,48952	1,24512
7,49969	1,25000
7,50985	1,25488
7,52001	1,24512
7,53017	1,24512
7,54033	1,24512
7,55050	1,24023
7,56066	1,24512
7,57082	1,24512
7,58098	1,24512
7,59115	1,25000
7,60131	1,24512
7,61147	1,24512
7,62163	1,24512
7,63179	1,24023
7,64196	1,24512
7,65212	1,24023
7,66228	1,24512
7,67244	1,25000
7,68261	1,24023
7,69277	1,25488
7,70293	1,24512
7,71309	1,24512
7,72325	1,24512
7,73342	1,25000
7,74358	1,25000
7,75374	1,24512
7,76390	1,24512
7,77406	1,25000
7,78423	1,24512
7,79439	1,24512
7,80455	1,24512
7,81471	1,24512
7,82488	1,24512
7,83504	1,24023
7,84520	1,24512
7,85536	1,24512
7,86552	1,24512
7,87569	1,24512
7,88585	1,24023
7,89601	1,24512
7,90617	1,24512
7,91634	1,24023
7,92650	1,24512
7,93666	1,24512
7,94682	1,24512
7,95698	1,24512
7,96715	1,24512
7,97731	1,24512
7,98747	1,24512
7,99763	1,24023
8,00779	1,24512
8,01796	1,24512
8,02812	1,24512
8,03828	1,24512
8,04844	1,24512
8,05861	1,25000
8,06877	1,24512
8,07893	1,25488
8,08909	1,24512
8,09925	1,24023
8,10942	1,24512
8,11958	1,24023
8,12974	1,24023
8,13990	1,25000
8,15007	1,24023
8,16023	1,25000
8,17039	1,24023
8,18055	1,24512
8,19071	1,25000
8,20088	1,24023
8,21104	1,24512
8,22120	1,24023
8,23136	1,23535
8,24152	1,24512
8,25169	1,24023
8,26185	1,24023
8,27201	1,24512
8,28217	1,24023
8,29234	1,25000
8,30250	1,24023
8,31266	1,24512
8,32282	1,25000
8,33298	1,24023
8,34315	1,25000
8,35331	1,24512
8,36347	1,24512
8,37363	1,24512
8,38380	1,24023
8,39396	1,24023
8,40412	1,24023
8,41428	1,24023
8,42444	1,24512
8,43461	1,24023
8,44477	1,24512
8,45493	1,24512
8,46509	1,24023
8,47525	1,25000
8,48542	1,24023
8,49558	1,24512
8,50574	1,24512
8,51590	1,24023
8,52607	1,24512
8,53623	1,24512
8,54639	1,24023
8,55655	1,24512
8,56671	1,24023
8,57688	1,24512
8,58704	1,24023
8,59720	1,24512
8,60736	1,24512
8,61753	1,24512
8,62769	1,24512
8,63785	1,25000
8,64801	1,24512
8,65817	1,25000
8,66834	1,24023
8,67850	1,24023
8,68866	1,24512
8,69882	1,23535
8,70898	1,24023
8,71915	1,24023
8,72931	1,25000
8,73947	1,25000
8,74963	1,24023
8,75980	1,24512
8,76996	1,24512
8,78012	1,23535
8,79028	1,24512
8,80044	1,24512
8,81061	1,24512
8,82077	1,25000
8,83093	1,24512
8,84109	1,25000
8,85126	1,24512
8,86142	1,24023
8,87158	1,25488
8,88174	1,24023
8,89190	1,24512
8,90207	1,24023
8,91223	1,24512
8,92239	1,24023
8,93255	1,24512
8,94271	1,24512
8,95288	1,24512
8,96304	1,23535
8,97320	1,24512
8,98336	1,24023
8,99353	1,24512
9,00369	1,25000
9,01385	1,24023
9,02401	1,24512
9,03417	1,24023
9,04434	1,24512
9,05450	1,23535
9,06466	1,24512
9,07482	1,25000
9,08499	1,24023
9,09515	1,24512
9,10531	1,24512
9,11547	1,24023
9,12563	1,24512
9,13580	1,24512
9,14596	1,24023
9,15612	1,25000
9,16628	1,24512
9,17645	1,24512
9,18661	1,24512
9,19677	1,24023
9,20693	1,24512
9,21709	1,24023
9,22726	1,24512
9,23742	1,24512
9,24758	1,24512
9,25774	1,24512
9,26790	1,24023
9,27807	1,24512
9,28823	1,24512
9,29839	1,24023
9,30855	1,24512
9,31872	1,25000
9,32888	1,24023
9,33904	1,24023
9,34920	1,24512
9,35936	1,24512
9,36953	1,24023
9,37969	1,24512
9,38985	1,24512
9,40001	1,24023
9,41018	1,25000
9,42034	1,24512
9,43050	1,24512
9,44066	1,25000
9,45082	1,24023
9,46099	1,24512
9,47115	1,24512
9,48131	1,24023
9,49147	1,25000
9,50163	1,24023
9,51180	1,24512
9,52196	1,25000
9,53212	1,24023
9,54228	1,24512
9,55245	1,24512
9,56261	1,24512
9,57277	1,24023
9,58293	1,24512
9,59309	1,24512
9,60326	1,24023
9,61342	1,24512
9,62358	1,24512
9,63374	1,24023
9,64391	1,24512
9,65407	1,24512
9,66423	1,24023
9,67439	1,25000
9,68455	1,24023
9,69472	1,24512
9,70488	1,25000
9,71504	1,25000
9,72520	1,24512
9,73536	1,24512
9,74553	1,24512
9,75569	1,25000
9,76585	1,24512
9,77601	1,24512
9,78618	1,24512
9,79634	1,24512
9,80650	1,25000
9,81666	1,24512
9,82682	1,24512
9,83699	1,24023
9,84715	1,24023
9,85731	1,25000
9,86747	1,24023
9,87764	1,25000
9,88780	1,24512
9,89796	1,24512
9,90812	1,24512
9,91828	1,24512
9,92845	1,25488
9,93861	1,24023
9,94877	1,25000
9,95893	1,24512
9,96909	1,24512
9,97926	1,24512
9,98942	1,24512
9,99958	1,24512
10,00974	1,24023
10,01991	1,24023
10,03007	1,24023
10,04023	1,24512
10,05039	1,24512
10,06055	1,25000
10,07072	1,24512
10,08088	1,24512
10,09104	1,24512
10,10120	1,24512
10,11137	1,24512
10,12153	1,25000
10,13169	1,24023
10,14185	1,25000
10,15201	1,24023
10,16218	1,25000
10,17234	1,25488
10,18250	1,24023
10,19266	1,24512
10,20282	1,24512
10,21299	1,24512
10,22315	1,25488
10,23331	1,24023
10,24347	1,24512
10,25364	1,24512
10,26380	1,24512
10,27396	1,24512
10,28412	1,24512
10,29428	1,24512
10,30445	1,24512
10,31461	1,24512
10,32477	1,24512
10,33493	1,24512
10,34510	1,24023
10,35526	1,25000
10,36542	1,24512
10,37558	1,24512
10,38574	1,25000
10,39591	1,24512
10,40607	1,24512
10,41623	1,25000
10,42639	1,24023
10,43655	1,25000
10,44672	1,25000
10,45688	1,24512
10,46704	1,24512
10,47720	1,24512
10,48737	1,24512
10,49753	1,24023
10,50769	1,24512
10,51785	1,24512
10,52801	1,25977
10,53818	1,25000
10,54834	1,24512
10,55850	1,25000
10,56866	1,25000
10,57883	1,24512
10,58899	1,25000
10,59915	1,24512
10,60931	1,25000
10,61947	1,24023
10,62964	1,24512
10,63980	1,24512
10,64996	1,25000
10,66012	1,24512
10,67028	1,24023
10,68045	1,24512
10,69061	1,25000
10,70077	1,24512
10,71093	1,24512
10,72110	1,25000
10,73126	1,24512
10,74142	1,25000
10,75158	1,24512
10,76174	1,25000
10,77191	1,25000
10,78207	1,24512
10,79223	1,25000
10,80239	1,24512
10,81256	1,25000
10,82272	1,24512
10,83288	1,24512
10,84304	1,25488
10,85320	1,24023
10,86337	1,24512
10,87353	1,24512
10,88369	1,25000
10,89385	1,24512
10,90401	1,25000
10,91418	1,24023
10,92434	1,25000
10,93450	1,24512
10,94466	1,25000
10,95483	1,24023
10,96499	1,24512
10,97515	1,24512
10,98531	1,24512
10,99547	1,24512
11,00564	1,25000
11,01580	1,24512
11,02596	1,25488
11,03612	1,24512
11,04629	1,25000
11,05645	1,24023
11,06661	1,24023
11,07677	1,24512
11,08693	1,24512
11,09710	1,24512
11,10726	1,25000
11,11742	1,24512
11,12758	1,24512
11,13775	1,25488
11,14791	1,24512
11,15807	1,25000
11,16823	1,24512
11,17839	1,25000
11,18856	1,25000
11,19872	1,24512
11,20888	1,25488
11,21904	1,25000
11,22920	1,24023
11,23937	1,24512
11,24953	1,24023
11,25969	1,24512
11,26985	1,24512
11,28002	1,24512
11,29018	1,24512
11,30034	1,24023
11,31050	1,24512
11,32066	1,25000
11,33083	1,24023
11,34099	1,25000
11,35115	1,24023
11,36131	1,25000
11,37148	1,24512
11,38164	1,24512
11,39180	1,24512
11,40196	1,25000
11,41212	1,24512
11,42229	1,24512
11,43245	1,24512
11,44261	1,25000
11,45277	1,24512
11,46293	1,24512
11,47310	1,25000
11,48326	1,24023
11,49342	1,24512
11,50358	1,24023
11,51375	1,24023
11,52391	1,24512
11,53407	1,24023
11,54423	1,24512
11,55439	1,24512
11,56456	1,24023
11,57472	1,24512
11,58488	1,24512
11,59504	1,24023
11,60521	1,24512
11,61537	1,24512
11,62553	1,25000
11,63569	1,24512
11,64585	1,24512
11,65602	1,24512
11,66618	1,24023
11,67634	1,25000
11,68650	1,25000
11,69666	1,24512
11,70683	1,25000
11,71699	1,24512
11,72715	1,24023
11,73731	1,25000
11,74748	1,24023
11,75764	1,25488
11,76780	1,24512
11,77796	1,24023
11,78812	1,25000
11,79829	1,24512
11,80845	1,25000
11,81861	1,24512
11,82877	1,25000
11,83894	1,24512
11,84910	1,24512
11,85926	1,24023
11,86942	1,24512
11,87958	1,24512
11,88975	1,25000
11,89991	1,24023
11,91007	1,24512
11,92023	1,24023
11,93039	1,24512
11,94056	1,25000
11,95072	1,25000
11,96088	1,24023
11,97104	1,24512
11,98121	1,24512
11,99137	1,25000
12,00153	1,25000
12,01169	1,25000
12,02185	1,24512
12,03202	1,24023
12,04218	1,24512
12,05234	1,24023
12,06250	1,25000
12,07267	1,24512
12,08283	1,24023
12,09299	1,24512
12,10315	1,24512
12,11331	1,24023
12,12348	1,25000
12,13364	1,24512
12,14380	1,24512
12,15396	1,24512
12,16412	1,24512
12,17429	1,24512
12,18445	1,24512
12,19461	1,24512
12,20477	1,25000
12,21494	1,23535
12,22510	1,25000
12,23526	1,24512
12,24542	1,25000
12,25558	1,24512
12,26575	1,24512
12,27591	1,25000
12,28607	1,24512
12,29623	1,25000
12,30640	1,25000
12,31656	1,25000
12,32672	1,24512
12,33688	1,24512
12,34704	1,24512
12,35721	1,25977
12,36737	1,24512
12,37753	1,24512
12,38769	1,25000
12,39785	1,24512
12,40802	1,24512
12,41818	1,24512
12,42834	1,24512
12,43850	1,24512
12,44867	1,24512
12,45883	1,24512
12,46899	1,25000
12,47915	1,24023
12,48931	1,25000
12,49948	1,25488
12,50964	1,24512
12,51980	1,25488
12,52996	1,24023
12,54013	1,25000
12,55029	1,24512
12,56045	1,25000
12,57061	1,25000
12,58077	1,24512
12,59094	1,25000
12,60110	1,24023
12,61126	1,25488
12,62142	1,24512
12,63158	1,25488
12,64175	1,24512
12,65191	1,24512
12,66207	1,24512
12,67223	1,25000
12,68240	1,24023
12,69256	1,25000
12,70272	1,25000
12,71288	1,24512
12,72304	1,25000
12,73321	1,24512
12,74337	1,25000
12,75353	1,25977
12,76369	1,24023
12,77386	1,25000
12,78402	1,24023
12,79418	1,25000
12,80434	1,24512
12,81450	1,24512
12,82467	1,25000
12,83483	1,24512
12,84499	1,25000
12,85515	1,24512
12,86531	1,25000
12,87548	1,24512
12,88564	1,24512
12,89580	1,24512
12,90596	1,24512
12,91613	1,24512
12,92629	1,25000
12,93645	1,24512
12,94661	1,24023
12,95677	1,24512
12,96694	1,25000
12,97710	1,24512
12,98726	1,25000
12,99742	1,24512
13,00759	1,25000
13,01775	1,24512
13,02791	1,25000
13,03807	1,24512
13,04823	1,24512
13,05840	1,24512
13,06856	1,25000
13,07872	1,24512
13,08888	1,25000
13,09905	1,24512
13,10921	1,25000
13,11937	1,24512
13,12953	1,24512
13,13969	1,25000
13,14986	1,24512
13,16002	1,25000
13,17018	1,24512
13,18034	1,24512
13,19050	1,25977
13,20067	1,24512
13,21083	1,24512
13,22099	1,25000
13,23115	1,24023
13,24132	1,25000
13,25148	1,24512
13,26164	1,24512
13,27180	1,24023
13,28196	1,24512
13,29213	1,25000
13,30229	1,24512
13,31245	1,25000
13,32261	1,24512
13,33278	1,25000
13,34294	1,25000
13,35310	1,24512
13,36326	1,25488
13,37342	1,24512
13,38359	1,24512
13,39375	1,25000
13,40391	1,25000
13,41407	1,25000
13,42423	1,25000
13,43440	1,24512
13,44456	1,25000
13,45472	1,25000
13,46488	1,24023
13,47505	1,25000
13,48521	1,25000
13,49537	1,24023
13,50553	1,25000
13,51569	1,25000
13,52586	1,24512
13,53602	1,24512
13,54618	1,24023
13,55634	1,25000
13,56651	1,25488
13,57667	1,25000
13,58683	1,24512
13,59699	1,24512
13,60715	1,24512
13,61732	1,25488
13,62748	1,24512
13,63764	1,25488
13,64780	1,24512
13,65796	1,25000
13,66813	1,25000
13,67829	1,25000
13,68845	1,24512
13,69861	1,24512
13,70878	1,24512
13,71894	1,24512
13,72910	1,25488
13,73926	1,24512
13,74942	1,24512
13,75959	1,24512
13,76975	1,24023
13,77991	1,24512
13,79007	1,25000
13,80024	1,25488
13,81040	1,24512
13,82056	1,25000
13,83072	1,24512
13,84088	1,24023
13,85105	1,24512
13,86121	1,24512
13,87137	1,24512
13,88153	1,24512
13,89169	1,25000
13,90186	1,24512
13,91202	1,24023
13,92218	1,25000
13,93234	1,24512
13,94251	1,24512
13,95267	1,24512
13,96283	1,24512
13,97299	1,25000
13,98315	1,24023
13,99332	1,25977
14,00348	1,25000
14,01364	1,24512
14,02380	1,25000
14,03397	1,24512
14,04413	1,25000
14,05429	1,24512
14,06445	1,25000
14,07461	1,25000
14,08478	1,24512
14,09494	1,25000
14,10510	1,25488
14,11526	1,24512
14,12542	1,24512
14,13559	1,24512
14,14575	1,24512
14,15591	1,24512
14,16607	1,24512
14,17624	1,24023
14,18640	1,24512
14,19656	1,25000
14,20672	1,25000
14,21688	1,24023
14,22705	1,24512
14,23721	1,24512
14,24737	1,24023
14,25753	1,24512
14,26770	1,24512
14,27786	1,25488
14,28802	1,24512
14,29818	1,25000
14,30834	1,24512
14,31851	1,24023
14,32867	1,24023
14,33883	1,24512
14,34899	1,25000
14,35915	1,24512
14,36932	1,24023
14,37948	1,24512
14,38964	1,24512
14,39980	1,24023
14,40997	1,24512
14,42013	1,24512
14,43029	1,24512
14,44045	1,24023
14,45061	1,24023
14,46078	1,24512
14,47094	1,24023
14,48110	1,24512
14,49126	1,24512
14,50143	1,24023
14,51159	1,24512
14,52175	1,24512
14,53191	1,24512
14,54207	1,24512
14,55224	1,24023
14,56240	1,24512
14,57256	1,25000
14,58272	1,24023
14,59288	1,24023
14,60305	1,25000
14,61321	1,24512
14,62337	1,24512
14,63353	1,24512
14,64370	1,24512
14,65386	1,24512
14,66402	1,24512
14,67418	1,24512
14,68434	1,24512
14,69451	1,25000
14,70467	1,25000
14,71483	1,24023
14,72499	1,25000
14,73516	1,24512
14,74532	1,23535
14,75548	1,24512
14,76564	1,25000
14,77580	1,24512
14,78597	1,25000
14,79613	1,24023
14,80629	1,25000
14,81645	1,24512
14,82661	1,24512
14,83678	1,24512
14,84694	1,24512
14,85710	1,25000
14,86726	1,24512
14,87743	1,24023
14,88759	1,24512
14,89775	1,24023
14,90791	1,25000
14,91807	1,24023
14,92824	1,24023
14,93840	1,25000
14,94856	1,25000
14,95872	1,25000
14,96889	1,23535
14,97905	1,24023
14,98921	1,25488
14,99937	1,24023
15,00953	1,24512
15,01970	1,24023
15,02986	1,24512
15,04002	1,25000
15,05018	1,24512
15,06035	1,24512
15,07051	1,24512
15,08067	1,23535
15,09083	1,24512
15,10099	1,24023
15,11116	1,25000
15,12132	1,25000
15,13148	1,25000
15,14164	1,24512
15,15180	1,24512
15,16197	1,24512
15,17213	1,24512
15,18229	1,24512
15,19245	1,24512
15,20262	1,24023
15,21278	1,24023
15,22294	1,24512
15,23310	1,24023
15,24326	1,24512
15,25343	1,24512
15,26359	1,25000
15,27375	1,24512
15,28391	1,25000
15,29408	1,24512
15,30424	1,24512
15,31440	1,24023
15,32456	1,24023
15,33472	1,24512
15,34489	1,24023
15,35505	1,24512
15,36521	1,24512
15,37537	1,25000
15,38553	1,24023
15,39570	1,24512
15,40586	1,25488
15,41602	1,24512
15,42618	1,25488
15,43635	1,25000
15,44651	1,24023
15,45667	1,24512
15,46683	1,24512
15,47699	1,24512
15,48716	1,24512
15,49732	1,24512
15,50748	1,25000
15,51764	1,24512
15,52781	1,25000
15,53797	1,24512
15,54813	1,25000
15,55829	1,24512
15,56845	1,24512
15,57862	1,25488
15,58878	1,25000
15,59894	1,24512
15,60910	1,24023
15,61926	1,25000
15,62943	1,24512
15,63959	1,25000
15,64975	1,24512
15,65991	1,24512
15,67008	1,25000
15,68024	1,24512
15,69040	1,25000
15,70056	1,25000
15,71072	1,24512
15,72089	1,25000
15,73105	1,24023
15,74121	1,25488
15,75137	1,24512
15,76154	1,24512
15,77170	1,25000
15,78186	1,23535
15,79202	1,25000
15,80218	1,24512
15,81235	1,24023
15,82251	1,25000
15,83267	1,24023
15,84283	1,24023
15,85299	1,24512
15,86316	1,24512
15,87332	1,24512
15,88348	1,25000
15,89364	1,24512
15,90381	1,24512
15,91397	1,24512
15,92413	1,25488
15,93429	1,24512
15,94445	1,24023
15,95462	1,24512
15,96478	1,24512
15,97494	1,24512
15,98510	1,25000
15,99527	1,24512
16,00543	1,25000
16,01559	1,24512
16,02575	1,25000
16,03591	1,24512
16,04608	1,24512
16,05624	1,24023
16,06640	1,24512
16,07656	1,24512
16,08672	1,25977
16,09689	1,25000
16,10705	1,25000
16,11721	1,24512
16,12737	1,24512
16,13754	1,25000
16,14770	1,24512
16,15786	1,24512
16,16802	1,24512
16,17818	1,24512
16,18835	1,25977
16,19851	1,24023
16,20867	1,25000
16,21883	1,24023
16,22900	1,24512
16,23916	1,25000
16,24932	1,24512
16,25948	1,25000
16,26964	1,24512
16,27981	1,24512
16,28997	1,25000
16,30013	1,24512
16,31029	1,24512
16,32045	1,24023
16,33062	1,24512
16,34078	1,25000
16,35094	1,24512
16,36110	1,24512
16,37127	1,24512
16,38143	1,24512
16,39159	1,24512
16,40175	1,24512
16,41191	1,24023
16,42208	1,25000
16,43224	1,24512
16,44240	1,25000
16,45256	1,24512
16,46273	1,24512
16,47289	1,24512
16,48305	1,24512
16,49321	1,24512
16,50337	1,24512
16,51354	1,24512
16,52370	1,25488
16,53386	1,24512
16,54402	1,24512
16,55418	1,25000
16,56435	1,24512
16,57451	1,24512
16,58467	1,24512
16,59483	1,25488
16,60500	1,25000
16,61516	1,25000
16,62532	1,25000
16,63548	1,24512
16,64564	1,25488
16,65581	1,24512
16,66597	1,24512
16,67613	1,24512
16,68629	1,24512
16,69646	1,25000
16,70662	1,25488
16,71678	1,24512
16,72694	1,24512
16,73710	1,24512
16,74727	1,24512
16,75743	1,24512
16,76759	1,25000
16,77775	1,25000
16,78791	1,24512
16,79808	1,25000
16,80824	1,24512
16,81840	1,25488
16,82856	1,24023
16,83873	1,25000
16,84889	1,24512
16,85905	1,24512
16,86921	1,24512
16,87937	1,24512
16,88954	1,24512
16,89970	1,24512
16,90986	1,24512
16,92002	1,24512
16,93019	1,24512
16,94035	1,24512
16,95051	1,24512
16,96067	1,24512
16,97083	1,25000
16,98100	1,24023
16,99116	1,25000
17,00132	1,24023
17,01148	1,24512
17,02165	1,24512
17,03181	1,24512
17,04197	1,24512
17,05213	1,24512
17,06229	1,25488
17,07246	1,25000
17,08262	1,24512
17,09278	1,24512
17,10294	1,24512
17,11310	1,24512
17,12327	1,25000
17,13343	1,24512
17,14359	1,24512
17,15375	1,24512
17,16392	1,24023
17,17408	1,25000
17,18424	1,24512
17,19440	1,24512
17,20456	1,24512
17,21473	1,24023
17,22489	1,24512
17,23505	1,24023
17,24521	1,24023
17,25538	1,24512
17,26554	1,24512
17,27570	1,24023
17,28586	1,24512
17,29602	1,24023
17,30619	1,24512
17,31635	1,24512
17,32651	1,25000
17,33667	1,24512
17,34683	1,24512
17,35700	1,24512
17,36716	1,24512
17,37732	1,24512
17,38748	1,25000
17,39765	1,24512
17,40781	1,24512
17,41797	1,25977
17,42813	1,24512
17,43829	1,24512
17,44846	1,24023
17,45862	1,24512
17,46878	1,24512
17,47894	1,24512
17,48911	1,24512
17,49927	1,24023
17,50943	1,25488
17,51959	1,24512
17,52975	1,24023
17,53992	1,25000
17,55008	1,24512
17,56024	1,24512
17,57040	1,24512
17,58056	1,24512
17,59073	1,24512
17,60089	1,24512
17,61105	1,24512
17,62121	1,24512
17,63138	1,24512
17,64154	1,24512
17,65170	1,24512
17,66186	1,24023
17,67202	1,24512
17,68219	1,24512
17,69235	1,25488
17,70251	1,24512
17,71267	1,24512
17,72284	1,24512
17,73300	1,24023
17,74316	1,24512
17,75332	1,24512
17,76348	1,25488
17,77365	1,24023
17,78381	1,24512
17,79397	1,25000
17,80413	1,24512
17,81429	1,24512
17,82446	1,24512
17,83462	1,24512
17,84478	1,24512
17,85494	1,25488
17,86511	1,24023
17,87527	1,25000
17,88543	1,24512
17,89559	1,25000
17,90575	1,24512
17,91592	1,24512
17,92608	1,24512
17,93624	1,24512
17,94640	1,24512
17,95657	1,24512
17,96673	1,24023
17,97689	1,24023
17,98705	1,24512
17,99721	1,25488
18,00738	1,24512
18,01754	1,25000
18,02770	1,25000
18,03786	1,24512
18,04802	1,24023
18,05819	1,24512
18,06835	1,24512
18,07851	1,24512
18,08867	1,24512
18,09884	1,24512
18,10900	1,24023
18,11916	1,24512
18,12932	1,24512
18,13948	1,24023
18,14965	1,25000
18,15981	1,24023
18,16997	1,25000
18,18013	1,24512
18,19030	1,25488
18,20046	1,24512
18,21062	1,24512
18,22078	1,24512
18,23094	1,24512
18,24111	1,24512
18,25127	1,24512
18,26143	1,25488
18,27159	1,24512
18,28175	1,24512
18,29192	1,24023
18,30208	1,24023
18,31224	1,24512
18,32240	1,24512
18,33257	1,24023
18,34273	1,24512
18,35289	1,25000
18,36305	1,24512
18,37321	1,25000
18,38338	1,25000
18,39354	1,24023
18,40370	1,25000
18,41386	1,24023
18,42403	1,24512
18,43419	1,25488
18,44435	1,24023
18,45451	1,24512
18,46467	1,24512
18,47484	1,24023
18,48500	1,25000
18,49516	1,24023
18,50532	1,25000
18,51548	1,24512
18,52565	1,24512
18,53581	1,24512
18,54597	1,24512
18,55613	1,25000
18,56630	1,25000
18,57646	1,24512
18,58662	1,25000
18,59678	1,24512
18,60694	1,25000
18,61711	1,24512
18,62727	1,24023
18,63743	1,24512
18,64759	1,25000
18,65776	1,24512
18,66792	1,24512
18,67808	1,24512
18,68824	1,25000
18,69840	1,24512
18,70857	1,24512
18,71873	1,24512
18,72889	1,24023
18,73905	1,25488
18,74921	1,24512
18,75938	1,24512
18,76954	1,24512
18,77970	1,24512
18,78986	1,25000
18,80003	1,24023
18,81019	1,24512
18,82035	1,24512
18,83051	1,24512
18,84067	1,24512
18,85084	1,24512
18,86100	1,24512
18,87116	1,25000
18,88132	1,24512
18,89149	1,24512
18,90165	1,24512
18,91181	1,24512
18,92197	1,25000
18,93213	1,24512
18,94230	1,25488
18,95246	1,25000
18,96262	1,24512
18,97278	1,24512
18,98294	1,25488
18,99311	1,25000
19,00327	1,24023
19,01343	1,24512
19,02359	1,25000
19,03376	1,24512
19,04392	1,24512
19,05408	1,25000
19,06424	1,23535
19,07440	1,25000
19,08457	1,24512
19,09473	1,24512
19,10489	1,25000
19,11505	1,24512
19,12522	1,24512
19,13538	1,25977
19,14554	1,24512
19,15570	1,24023
19,16586	1,24512
19,17603	1,24023
19,18619	1,24512
19,19635	1,24023
19,20651	1,25000
19,21668	1,24023
19,22684	1,24512
19,23700	1,24512
19,24716	1,24512
19,25732	1,24512
19,26749	1,24512
19,27765	1,24512
19,28781	1,25000
19,29797	1,25000
19,30813	1,24512
19,31830	1,25000
19,32846	1,24512
19,33862	1,24512
19,34878	1,24512
19,35895	1,24512
19,36911	1,25000
19,37927	1,24512
19,38943	1,24512
19,39959	1,24023
19,40976	1,24512
19,41992	1,24512
19,43008	1,24512
19,44024	1,24023
19,45041	1,24512
19,46057	1,24023
19,47073	1,24512
19,48089	1,25000
19,49105	1,23535
19,50122	1,25000
19,51138	1,24023
19,52154	1,25000
19,53170	1,25000
19,54186	1,24512
19,55203	1,24512
19,56219	1,25000
19,57235	1,24512
19,58251	1,24023
19,59268	1,24512
19,60284	1,25000
19,61300	1,24023
19,62316	1,25000
19,63332	1,24512
19,64349	1,24023
19,65365	1,25000
19,66381	1,24512
19,67397	1,25000
19,68414	1,24512
19,69430	1,24512
19,70446	1,24023
19,71462	1,24512
19,72478	1,24512
19,73495	1,24512
19,74511	1,24512
19,75527	1,24512
19,76543	1,24512
19,77559	1,24512
19,78576	1,24512
19,79592	1,24512
19,80608	1,24512
19,81624	1,24512
19,82641	1,24512
19,83657	1,24512
19,84673	1,24023
19,85689	1,25000
19,86705	1,24512
19,87722	1,24023
19,88738	1,25000
19,89754	1,24512
19,90770	1,25000
19,91787	1,24512
19,92803	1,24512
19,93819	1,25000
19,94835	1,24512
19,95851	1,25488
19,96868	1,25000
19,97884	1,24512
19,98900	1,24512
19,99916	1,25000
20,00932	1,24512
20,01949	1,25000
20,02965	1,24512
20,03981	1,24512
20,04997	1,24512
20,06014	1,24512
20,07030	1,25000
20,08046	1,24512
20,09062	1,25000
20,10078	1,24023
20,11095	1,24512
20,12111	1,24512
20,13127	1,24512
20,14143	1,24512
20,15160	1,24023
20,16176	1,24512
20,17192	1,24512
20,18208	1,24512
20,19224	1,25000
20,20241	1,24512
20,21257	1,24512
20,22273	1,24023
20,23289	1,25488
20,24305	1,24512
20,25322	1,24023
20,26338	1,25000
20,27354	1,24512
20,28370	1,25488
20,29387	1,24023
20,30403	1,24512
20,31419	1,23535
20,32435	1,25000
20,33451	1,24512
20,34468	1,24512
20,35484	1,25000
20,36500	1,24512
20,37516	1,24512
20,38533	1,25000
20,39549	1,24512
20,40565	1,25000
20,41581	1,24023
20,42597	1,24512
20,43614	1,24512
20,44630	1,24512
20,45646	1,24512
20,46662	1,24023
20,47678	1,24023
20,48695	1,25000
20,49711	1,24512
20,50727	1,24512
20,51743	1,24512
20,52760	1,24023
20,53776	1,24512
20,54792	1,24023
20,55808	1,24512
20,56824	1,24512
20,57841	1,24023
20,58857	1,24023
20,59873	1,24512
20,60889	1,24023
20,61906	1,24512
20,62922	1,24512
20,63938	1,24512
20,64954	1,24512
20,65970	1,25000
20,66987	1,24023
20,68003	1,24512
20,69019	1,24512
20,70035	1,25488
20,71051	1,24023
20,72068	1,24512
20,73084	1,24023
20,74100	1,25000
20,75116	1,24512
20,76133	1,24512
20,77149	1,24512
20,78165	1,24512
20,79181	1,24512
20,80197	1,25000
20,81214	1,24023
20,82230	1,25488
20,83246	1,24512
20,84262	1,25488
20,85279	1,25000
20,86295	1,24023
20,87311	1,24512
20,88327	1,24512
20,89343	1,24512
20,90360	1,24512
20,91376	1,24023
20,92392	1,24023
20,93408	1,24512
20,94424	1,24023
20,95441	1,25000
20,96457	1,24512
20,97473	1,24512
20,98489	1,24512
20,99506	1,25000
21,00522	1,25000
21,01538	1,24512
21,02554	1,24512
21,03570	1,24512
21,04587	1,24512
21,05603	1,24023
21,06619	1,25000
21,07635	1,24023
21,08652	1,25000
21,09668	1,24512
21,10684	1,24512
21,11700	1,24512
21,12716	1,24512
21,13733	1,25000
21,14749	1,24512
21,15765	1,24023
21,16781	1,24512
21,17798	1,24023
21,18814	1,24512
21,19830	1,24512
21,20846	1,24023
21,21862	1,24512
21,22879	1,24512
21,23895	1,25000
21,24911	1,24512
21,25927	1,24023
21,26943	1,25000
21,27960	1,24512
21,28976	1,25000
21,29992	1,25000
21,31008	1,24512
21,32025	1,25000
21,33041	1,24023
21,34057	1,24512
21,35073	1,25000
21,36089	1,24512
21,37106	1,25000
21,38122	1,25000
21,39138	1,24023
21,40154	1,24512
21,41171	1,24023
21,42187	1,24512
21,43203	1,24512
21,44219	1,24512
21,45235	1,25000
21,46252	1,24512
21,47268	1,24512
21,48284	1,24512
21,49300	1,24023
21,50316	1,25000
21,51333	1,24512
21,52349	1,25000
21,53365	1,24512
21,54381	1,24512
21,55398	1,24512
21,56414	1,25000
21,57430	1,24023
21,58446	1,24512
21,59462	1,24023
21,60479	1,24512
21,61495	1,24512
21,62511	1,24023
21,63527	1,25000
21,64544	1,24512
21,65560	1,25000
21,66576	1,25000
21,67592	1,24023
21,68608	1,25000
21,69625	1,24512
21,70641	1,24512
21,71657	1,25000
21,72673	1,23535
21,73689	1,25000
21,74706	1,25000
21,75722	1,24512
21,76738	1,24023
21,77754	1,24023
21,78771	1,24512
21,79787	1,25000
21,80803	1,24023
21,81819	1,25977
21,82835	1,24023
21,83852	1,24512
21,84868	1,24023
21,85884	1,24023
21,86900	1,24512
21,87917	1,25000
21,88933	1,24023
21,89949	1,25977
21,90965	1,24512
21,91981	1,24512
21,92998	1,25000
21,94014	1,24512
21,95030	1,24512
21,96046	1,24512
21,97062	1,24512
21,98079	1,24512
21,99095	1,24512
22,00111	1,25000
22,01127	1,24512
22,02144	1,25000
22,03160	1,24512
22,04176	1,24512
22,05192	1,25000
22,06208	1,24023
22,07225	1,24512
22,08241	1,25000
22,09257	1,24512
22,10273	1,25000
22,11290	1,24512
22,12306	1,24512
22,13322	1,25000
22,14338	1,23535
22,15354	1,25000
22,16371	1,24512
22,17387	1,24512
22,18403	1,24023
22,19419	1,24512
22,20435	1,24512
22,21452	1,24512
22,22468	1,25000
22,23484	1,24512
22,24500	1,24512
22,25517	1,24512
22,26533	1,25000
22,27549	1,24023
22,28565	1,24512
22,29581	1,24512
22,30598	1,25000
22,31614	1,24512
22,32630	1,25000
22,33646	1,24512
22,34663	1,24023
22,35679	1,24023
22,36695	1,24512
22,37711	1,24512
22,38727	1,25000
22,39744	1,24023
22,40760	1,24512
22,41776	1,25000
22,42792	1,24023
22,43808	1,24512
22,44825	1,24512
22,45841	1,24512
22,46857	1,24512
22,47873	1,24512
22,48890	1,24512
22,49906	1,25000
22,50922	1,24512
22,51938	1,24512
22,52954	1,24512
22,53971	1,24512
22,54987	1,24512
22,56003	1,24512
22,57019	1,25000
22,58036	1,24512
22,59052	1,24512
22,60068	1,24512
22,61084	1,24023
22,62100	1,24512
22,63117	1,24512
22,64133	1,24512
22,65149	1,24512
22,66165	1,24512
22,67181	1,24512
22,68198	1,24512
22,69214	1,24512
22,70230	1,24512
22,71246	1,24512
22,72263	1,24512
22,73279	1,24512
22,74295	1,24512
22,75311	1,24512
22,76327	1,24512
22,77344	1,24512
22,78360	1,24512
22,79376	1,24512
22,80392	1,24512
22,81409	1,24512
22,82425	1,24023
22,83441	1,24512
22,84457	1,24512
22,85473	1,24512
22,86490	1,24512
22,87506	1,24023
22,88522	1,24512
22,89538	1,24512
22,90554	1,24023
22,91571	1,24512
22,92587	1,24023
22,93603	1,24512
22,94619	1,24023
22,95636	1,24023
22,96652	1,24023
22,97668	1,24023
22,98684	1,24512
22,99700	1,24512
23,00717	1,23535
23,01733	1,25000
23,02749	1,24023
23,03765	1,25000
23,04782	1,24512
23,05798	1,23535
23,06814	1,25000
23,07830	1,24512
23,08846	1,25000
23,09863	1,24512
23,10879	1,24512
23,11895	1,24512
23,12911	1,25000
23,13928	1,24023
23,14944	1,25000
23,15960	1,24512
23,16976	1,24512
23,17992	1,24512
23,19009	1,24512
23,20025	1,24512
23,21041	1,24512
23,22057	1,24512
23,23073	1,24512
23,24090	1,24023
23,25106	1,24512
23,26122	1,24512
23,27138	1,25000
23,28155	1,24512
23,29171	1,24512
23,30187	1,24023
23,31203	1,25488
23,32219	1,25000
23,33236	1,25000
23,34252	1,24512
23,35268	1,24512
23,36284	1,25488
23,37301	1,24023
23,38317	1,24512
23,39333	1,24512
23,40349	1,24512
23,41365	1,24512
23,42382	1,25488
23,43398	1,24512
23,44414	1,24512
23,45430	1,24512
23,46446	1,24512
23,47463	1,24512
23,48479	1,24512
23,49495	1,24512
23,50511	1,25000
23,51528	1,24512
23,52544	1,24023
23,53560	1,24512
23,54576	1,24023
23,55592	1,24512
23,56609	1,24512
23,57625	1,24512
23,58641	1,24512
23,59657	1,24512
23,60674	1,25000
23,61690	1,24023
23,62706	1,25000
23,63722	1,25000
23,64738	1,25000
23,65755	1,24512
23,66771	1,24512
23,67787	1,24023
23,68803	1,24512
23,69819	1,24512
23,70836	1,24512
23,71852	1,24512
23,72868	1,24512
23,73884	1,25000
23,74901	1,24512
23,75917	1,24512
23,76933	1,24023
23,77949	1,25000
23,78965	1,24023
23,79982	1,24512
23,80998	1,24023
23,82014	1,24512
23,83030	1,24023
23,84047	1,24023
23,85063	1,25488
23,86079	1,24023
23,87095	1,24023
23,88111	1,24512
23,89128	1,25000
23,90144	1,24512
23,91160	1,24023
23,92176	1,24023
23,93192	1,24023
23,94209	1,24023
23,95225	1,24512
23,96241	1,25000
23,97257	1,24512
23,98274	1,24512
23,99290	1,24023
24,00306	1,24512
24,01322	1,24512
24,02338	1,24023
24,03355	1,24512
24,04371	1,24023
24,05387	1,24512
24,06403	1,24512
24,07420	1,24023
24,08436	1,24512
24,09452	1,24512
24,10468	1,24023
24,11484	1,25000
24,12501	1,24023
24,13517	1,24512
24,14533	1,24023
24,15549	1,24512
24,16565	1,24512
24,17582	1,24512
24,18598	1,24512
24,19614	1,24023
24,20630	1,24512
24,21647	1,24512
24,22663	1,24023
24,23679	1,25000
24,24695	1,24512
24,25711	1,23535
24,26728	1,24512
24,27744	1,24023
24,28760	1,25000
24,29776	1,24512
24,30793	1,24023
24,31809	1,24512
24,32825	1,24512
24,33841	1,24512
24,34857	1,25000
24,35874	1,24023
24,36890	1,24512
24,37906	1,24023
24,38922	1,24023
24,39938	1,24023
24,40955	1,24512
24,41971	1,24512
24,42987	1,24023
24,44003	1,23535
24,45020	1,24512
24,46036	1,24023
24,47052	1,24512
24,48068	1,24512
24,49084	1,24512
24,50101	1,25000
24,51117	1,24512
24,52133	1,24023
24,53149	1,24512
24,54166	1,25000
24,55182	1,24512
24,56198	1,25000
24,57214	1,24023
24,58230	1,25000
24,59247	1,23535
24,60263	1,25000
24,61279	1,24023
24,62295	1,24512
24,63311	1,24512
24,64328	1,24023
24,65344	1,25000
24,66360	1,24512
24,67376	1,24023
24,68393	1,24512
24,69409	1,24023
24,70425	1,24512
24,71441	1,24023
24,72457	1,24512
24,73474	1,25000
24,74490	1,24023
24,75506	1,24512
24,76522	1,24512
24,77539	1,24023
24,78555	1,24512
24,79571	1,24512
24,80587	1,24512
24,81603	1,24023
24,82620	1,24512
24,83636	1,24512
24,84652	1,24512
24,85668	1,25000
24,86684	1,24512
24,87701	1,24512
24,88717	1,25000
24,89733	1,24512
24,90749	1,24512
24,91766	1,24512
24,92782	1,24512
24,93798	1,24512
24,94814	1,24512
24,95830	1,24512
24,96847	1,24512
24,97863	1,25000
24,98879	1,24023
24,99895	1,25000
25,00912	1,24023
25,01928	1,24512
25,02944	1,24512
25,03960	1,24512
25,04976	1,25488
25,05993	1,24512
25,07009	1,24512
25,08025	1,24512
25,09041	1,24023
25,10058	1,24512
25,11074	1,25000
25,12090	1,24512
25,13106	1,24512
25,14122	1,24512
25,15139	1,24512
25,16155	1,24023
25,17171	1,24023
25,18187	1,24512
25,19203	1,24023
25,20220	1,24023
25,21236	1,24512
25,22252	1,24023
25,23268	1,24512
25,24285	1,24512
25,25301	1,24512
25,26317	1,24023
25,27333	1,25000
25,28349	1,24023
25,29366	1,24512
25,30382	1,24023
25,31398	1,24512
25,32414	1,24023
25,33431	1,25000
25,34447	1,24512
25,35463	1,24512
25,36479	1,24023
25,37495	1,24512
25,38512	1,24512
25,39528	1,24512
25,40544	1,24023
25,41560	1,24512
25,42576	1,24512
25,43593	1,24023
25,44609	1,24512
25,45625	1,25000
25,46641	1,25000
25,47658	1,24023
25,48674	1,24512
25,49690	1,24512
25,50706	1,24023
25,51722	1,25000
25,52739	1,24023
25,53755	1,24512
25,54771	1,24512
25,55787	1,25000
25,56804	1,24023
25,57820	1,24512
25,58836	1,24512
25,59852	1,25000
25,60868	1,25488
25,61885	1,25000
25,62901	1,24512
25,63917	1,24512
25,64933	1,24512
25,65949	1,24512
25,66966	1,24023
25,67982	1,24512
25,68998	1,24023
25,70014	1,25000
25,71031	1,23535
25,72047	1,24512
25,73063	1,24512
25,74079	1,24023
25,75095	1,24023
25,76112	1,24512
25,77128	1,24023
25,78144	1,24512
25,79160	1,25000
25,80177	1,24023
25,81193	1,24512
25,82209	1,24512
25,83225	1,24512
25,84241	1,24512
25,85258	1,24023
25,86274	1,24512
25,87290	1,24023
25,88306	1,24512
25,89322	1,24512
25,90339	1,23535
25,91355	1,24512
25,92371	1,24512
25,93387	1,24512
25,94404	1,24512
25,95420	1,24023
25,96436	1,24512
25,97452	1,24023
25,98468	1,24023
25,99485	1,24512
26,00501	1,24512
26,01517	1,24512
26,02533	1,24512
26,03550	1,25000
26,04566	1,24023
26,05582	1,24023
26,06598	1,25000
26,07614	1,24023
26,08631	1,24512
26,09647	1,24512
26,10663	1,24512
26,11679	1,24023
26,12695	1,24023
26,13712	1,24023
26,14728	1,24512
26,15744	1,24512
26,16760	1,24023
26,17777	1,24512
26,18793	1,24512
26,19809	1,24512
26,20825	1,24023
26,21841	1,24512
26,22858	1,25488
26,23874	1,24023
26,24890	1,24512
26,25906	1,24023
26,26923	1,24512
26,27939	1,24512
26,28955	1,24023
26,29971	1,24023
26,30987	1,25000
26,32004	1,24023
26,33020	1,24512
26,34036	1,24023
26,35052	1,24023
26,36068	1,24023
26,37085	1,24023
26,38101	1,24512
26,39117	1,23535
26,40133	1,24512
26,41150	1,24023
26,42166	1,24023
26,43182	1,24023
26,44198	1,23535
26,45214	1,24023
26,46231	1,24512
26,47247	1,24023
26,48263	1,24512
26,49279	1,24512
26,50296	1,24023
26,51312	1,24023
26,52328	1,23535
26,53344	1,24023
26,54360	1,24512
26,55377	1,24023
26,56393	1,24512
26,57409	1,24023
26,58425	1,24512
26,59441	1,24512
26,60458	1,24512
26,61474	1,25000
26,62490	1,24023
26,63506	1,24512
26,64523	1,24512
26,65539	1,25000
26,66555	1,25000
26,67571	1,24512
26,68587	1,25000
26,69604	1,24512
26,70620	1,24512
26,71636	1,24512
26,72652	1,24023
26,73669	1,24023
26,74685	1,24512
26,75701	1,24512
26,76717	1,24512
26,77733	1,24023
26,78750	1,24023
26,79766	1,24512
26,80782	1,25000
26,81798	1,24512
26,82814	1,23535
26,83831	1,24512
26,84847	1,24512
26,85863	1,24023
26,86879	1,24512
26,87896	1,25488
26,88912	1,24512
26,89928	1,24512
26,90944	1,24023
26,91960	1,25000
26,92977	1,24023
26,93993	1,24512
26,95009	1,24512
26,96025	1,25000
26,97042	1,24023
26,98058	1,24023
26,99074	1,25000
27,00090	1,24512
27,01106	1,24023
27,02123	1,25000
27,03139	1,25488
27,04155	1,24023
27,05171	1,24512
27,06188	1,24512
27,07204	1,24023
27,08220	1,25000
27,09236	1,24512
27,10252	1,25000
27,11269	1,24023
27,12285	1,23535
27,13301	1,24512
27,14317	1,24023
27,15333	1,24023
27,16350	1,24512
27,17366	1,25000
27,18382	1,24023
27,19398	1,24512
27,20415	1,24023
27,21431	1,24512
27,22447	1,23535
27,23463	1,24512
27,24479	1,24023
27,25496	1,24023
27,26512	1,24512
27,27528	1,24512
27,28544	1,24512
27,29561	1,25000
27,30577	1,24023
27,31593	1,24512
27,32609	1,24023
27,33625	1,25000
27,34642	1,24512
27,35658	1,25000
27,36674	1,24512
27,37690	1,23535
27,38706	1,24023
27,39723	1,24512
27,40739	1,23535
27,41755	1,24512
27,42771	1,24023
27,43788	1,24023
27,44804	1,24512
27,45820	1,24023
27,46836	1,24512
27,47852	1,24023
27,48869	1,24512
27,49885	1,24023
27,50901	1,24512
27,51917	1,24023
27,52934	1,24512
27,53950	1,24023
27,54966	1,24512
27,55982	1,24023
27,56998	1,25488
27,58015	1,24512
27,59031	1,24512
27,60047	1,24512
27,61063	1,24512
27,62079	1,24512
27,63096	1,24512
27,64112	1,24512
27,65128	1,25000
27,66144	1,24023
27,67161	1,24023
27,68177	1,24023
27,69193	1,24023
27,70209	1,24512
27,71225	1,24512
27,72242	1,23535
27,73258	1,24023
27,74274	1,24023
27,75290	1,24512
27,76307	1,24512
27,77323	1,24023
27,78339	1,24512
27,79355	1,24023
27,80371	1,24512
27,81388	1,24512
27,82404	1,24512
27,83420	1,24512
27,84436	1,24023
27,85452	1,24023
27,86469	1,24512
27,87485	1,24512
27,88501	1,24512
27,89517	1,24512
27,90534	1,24023
27,91550	1,24512
27,92566	1,24512
27,93582	1,24512
27,94598	1,25000
27,95615	1,24512
27,96631	1,24512
27,97647	1,24023
27,98663	1,24512
27,99680	1,24512
28,00696	1,24023
28,01712	1,24512
28,02728	1,23535
28,03744	1,24023
28,04761	1,24023
28,05777	1,24023
28,06793	1,24512
28,07809	1,24023
28,08825	1,24512
28,09842	1,24512
28,10858	1,24023
28,11874	1,25000
28,12890	1,24023
28,13907	1,24023
28,14923	1,24512
28,15939	1,24512
28,16955	1,25000
28,17971	1,24512
28,18988	1,24512
28,20004	1,24512
28,21020	1,24023
28,22036	1,24512
28,23053	1,24512
28,24069	1,24512
28,25085	1,24512
28,26101	1,24512
28,27117	1,24512
28,28134	1,24023
28,29150	1,24512
28,30166	1,24023
28,31182	1,24512
28,32198	1,24023
28,33215	1,24023
28,34231	1,24023
28,35247	1,24512
28,36263	1,24512
28,37280	1,24023
28,38296	1,24023
28,39312	1,24023
28,40328	1,23535
28,41344	1,24512
28,42361	1,24023
28,43377	1,24512
28,44393	1,24023
28,45409	1,24512
28,46426	1,24512
28,47442	1,23535
28,48458	1,25000
28,49474	1,24512
28,50490	1,25000
28,51507	1,24023
28,52523	1,24512
28,53539	1,24512
28,54555	1,24512
28,55571	1,24023
28,56588	1,24512
28,57604	1,24512
28,58620	1,24512
28,59636	1,24512
28,60653	1,23535
28,61669	1,24023
28,62685	1,25000
28,63701	1,24023
28,64717	1,24512
28,65734	1,24023
28,66750	1,24023
28,67766	1,25000
28,68782	1,24023
28,69799	1,23535
28,70815	1,24512
28,71831	1,24512
28,72847	1,24512
28,73863	1,24512
28,74880	1,25488
28,75896	1,24512
28,76912	1,24512
28,77928	1,24512
28,78944	1,24023
28,79961	1,24512
28,80977	1,24023
28,81993	1,24512
28,83009	1,25000
28,84026	1,24023
28,85042	1,24512
28,86058	1,24512
28,87074	1,24023
28,88090	1,24512
28,89107	1,24023
28,90123	1,24512
28,91139	1,24512
28,92155	1,24512
28,93172	1,24512
28,94188	1,24512
28,95204	1,24512
28,96220	1,24512
28,97236	1,24512
28,98253	1,25000
28,99269	1,24023
29,00285	1,24023
29,01301	1,24512
29,02318	1,25000
29,03334	1,24512
29,04350	1,24512
29,05366	1,24512
29,06382	1,24512
29,07399	1,24023
29,08415	1,24512
29,09431	1,24512
29,10447	1,25000
29,11463	1,24512
29,12480	1,24512
29,13496	1,24512
29,14512	1,24512
29,15528	1,24023
29,16545	1,24023
29,17561	1,24512
29,18577	1,24023
29,19593	1,25000
29,20609	1,23535
29,21626	1,25488
29,22642	1,24512
29,23658	1,24512
29,24674	1,24512
29,25691	1,24512
29,26707	1,24512
29,27723	1,24023
29,28739	1,23535
29,29755	1,23535
29,30772	1,24512
29,31788	1,24512
29,32804	1,24512
29,33820	1,23535
29,34836	1,25000
29,35853	1,24512
29,36869	1,24023
29,37885	1,25000
29,38901	1,24023
29,39918	1,24512
29,40934	1,24512
29,41950	1,24512
29,42966	1,25000
29,43982	1,24023
29,44999	1,24512
29,46015	1,24512
29,47031	1,24023
29,48047	1,25000
29,49064	1,24023
29,50080	1,25000
29,51096	1,24512
29,52112	1,24512
29,53128	1,24023
29,54145	1,24023
29,55161	1,24512
29,56177	1,24512
29,57193	1,24023
29,58209	1,24512
29,59226	1,24512
29,60242	1,24512
29,61258	1,24023
29,62274	1,25000
29,63291	1,24023
29,64307	1,25488
29,65323	1,24512
29,66339	1,25000
29,67355	1,24023
29,68372	1,24512
29,69388	1,24512
29,70404	1,24023
29,71420	1,25000
29,72437	1,24512
29,73453	1,24512
29,74469	1,24512
29,75485	1,24023
29,76501	1,25000
29,77518	1,23535
29,78534	1,24512
29,79550	1,24512
29,80566	1,24023
29,81582	1,25000
29,82599	1,24023
29,83615	1,25000
29,84631	1,24512
29,85647	1,24023
29,86664	1,24512
29,87680	1,23535
29,88696	1,23535
29,89712	1,24512
29,90728	1,24023
29,91745	1,24512
29,92761	1,24023
29,93777	1,24512
29,94793	1,24023
29,95810	1,24023
29,96826	1,24512
29,97842	1,24023
29,98858	1,24512
29,99874	1,24512
30,00891	1,24512
30,01907	1,24512
30,02923	1,24023
30,03939	1,25000
30,04955	1,24512
30,05972	1,25000
30,06988	1,23535
30,08004	1,24512
30,09020	1,23535
30,10037	1,24023
30,11053	1,24023
30,12069	1,24023
30,13085	1,24512
30,14101	1,24512
30,15118	1,25000
30,16134	1,24512
30,17150	1,24512
30,18166	1,25000
30,19183	1,24512
30,20199	1,25488
30,21215	1,24512
30,22231	1,24512
30,23247	1,24512
30,24264	1,24023
30,25280	1,24512
30,26296	1,24023
30,27312	1,24023
30,28328	1,24512
30,29345	1,24512
30,30361	1,23535
30,31377	1,24512
30,32393	1,24512
30,33410	1,24512
30,34426	1,24512
30,35442	1,24512
30,36458	1,24023
30,37474	1,24023
30,38491	1,24023
30,39507	1,24512
30,40523	1,24023
30,41539	1,24512
30,42556	1,24512
30,43572	1,24023
30,44588	1,25000
30,45604	1,24023
30,46620	1,25000
30,47637	1,24023
30,48653	1,24512
30,49669	1,24512
30,50685	1,24023
30,51701	1,24512
30,52718	1,24512
30,53734	1,24023
30,54750	1,25000
30,55766	1,23535
30,56783	1,24512
30,57799	1,24023
30,58815	1,24512
30,59831	1,24023
30,60847	1,24512
30,61864	1,25000
30,62880	1,24023
30,63896	1,24023
30,64912	1,24512
30,65929	1,24512
30,66945	1,24512
30,67961	1,24512
30,68977	1,25000
30,69993	1,24512
30,71010	1,25000
30,72026	1,24512
30,73042	1,24512
30,74058	1,24512
30,75074	1,25000
30,76091	1,25488
30,77107	1,24023
30,78123	1,24512
30,79139	1,24023
30,80156	1,24023
30,81172	1,24023
30,82188	1,24023
30,83204	1,24023
30,84220	1,25000
30,85237	1,24512
30,86253	1,24512
30,87269	1,24512
30,88285	1,24512
30,89302	1,24023
30,90318	1,24023
30,91334	1,25000
30,92350	1,24023
30,93366	1,24512
30,94383	1,24023
30,95399	1,24023
30,96415	1,24512
30,97431	1,24023
30,98447	1,24512
30,99464	1,24023
31,00480	1,23535
31,01496	1,25000
31,02512	1,24512
31,03529	1,24512
31,04545	1,24512
31,05561	1,24023
31,06577	1,25000
31,07593	1,24512
31,08610	1,24023
31,09626	1,25000
31,10642	1,24023
31,11658	1,25488
31,12675	1,24512
31,13691	1,24512
31,14707	1,25000
31,15723	1,24023
31,16739	1,24512
31,17756	1,24512
31,18772	1,24023
31,19788	1,25000
31,20804	1,24512
31,21821	1,24512
31,22837	1,24023
31,23853	1,24512
31,24869	1,24512
31,25885	1,24023
31,26902	1,24023
31,27918	1,25000
31,28934	1,24512
31,29950	1,24023
31,30966	1,24023
31,31983	1,25000
31,32999	1,24512
31,34015	1,24023
31,35031	1,24512
31,36048	1,24512
31,37064	1,24512
31,38080	1,24023
31,39096	1,24023
31,40112	1,24023
31,41129	1,24023
31,42145	1,24512
31,43161	1,24512
31,44177	1,25000
31,45194	1,25000
31,46210	1,25488
31,47226	1,24023
31,48242	1,24023
31,49258	1,24512
31,50275	1,24512
31,51291	1,25000
31,52307	1,24023
31,53323	1,25000
31,54339	1,24023
31,55356	1,24023
31,56372	1,24512
31,57388	1,24023
31,58404	1,24512
31,59421	1,24512
31,60437	1,24512
31,61453	1,24023
31,62469	1,24023
31,63485	1,24512
31,64502	1,24023
31,65518	1,24512
31,66534	1,24512
31,67550	1,24023
31,68567	1,24512
31,69583	1,24512
31,70599	1,24023
31,71615	1,24023
31,72631	1,24023
31,73648	1,24023
31,74664	1,24512
31,75680	1,24023
31,76696	1,24512
31,77712	1,24512
31,78729	1,24023
31,79745	1,24512
31,80761	1,24512
31,81777	1,24023
31,82794	1,24512
31,83810	1,24023
31,84826	1,24512
31,85842	1,24512
31,86858	1,24512
31,87875	1,24023
31,88891	1,24023
31,89907	1,24023
31,90923	1,24023
31,91940	1,24023
31,92956	1,24023
31,93972	1,24023
31,94988	1,24023
31,96004	1,24512
31,97021	1,25000
31,98037	1,25000
31,99053	1,24023
32,00069	1,24023
32,01085	1,24023
32,02102	1,24023
32,03118	1,24512
32,04134	1,24023
32,05150	1,24023
32,06167	1,24512
32,07183	1,24023
32,08199	1,24023
32,09215	1,24512
32,10231	1,24023
32,11248	1,24023
32,12264	1,24023
32,13280	1,24023
32,14296	1,24512
32,15313	1,24512
32,16329	1,24512
32,17345	1,24023
32,18361	1,24512
32,19377	1,24512
32,20394	1,23535
32,21410	1,25000
32,22426	1,24512
32,23442	1,24512
32,24458	1,24512
32,25475	1,24023
32,26491	1,24512
32,27507	1,25488
32,28523	1,25000
32,29540	1,24512
32,30556	1,23535
32,31572	1,24512
32,32588	1,24512
32,33604	1,24512
32,34621	1,25000
32,35637	1,24512
32,36653	1,24512
32,37669	1,24023
32,38686	1,23535
32,39702	1,24512
32,40718	1,24023
32,41734	1,24512
32,42750	1,24512
32,43767	1,25000
32,44783	1,24512
32,45799	1,25000
32,46815	1,24512
32,47831	1,24023
32,48848	1,24023
32,49864	1,24512
32,50880	1,25000
32,51896	1,24512
32,52913	1,24512
32,53929	1,23535
32,54945	1,25000
32,55961	1,24023
32,56977	1,24512
32,57994	1,24512
32,59010	1,24512
32,60026	1,24023
32,61042	1,24023
32,62059	1,24023
32,63075	1,25488
32,64091	1,23535
32,65107	1,25000
32,66123	1,24512
32,67140	1,25000
32,68156	1,24512
32,69172	1,24023
32,70188	1,24023
32,71204	1,24512
32,72221	1,24023
32,73237	1,24512
32,74253	1,25000
32,75269	1,24023
32,76286	1,24512
32,77302	1,24023
32,78318	1,24512
32,79334	1,24023
32,80350	1,24512
32,81367	1,24023
32,82383	1,24512
32,83399	1,24023
32,84415	1,24512
32,85432	1,24023
32,86448	1,24512
32,87464	1,24023
32,88480	1,24023
32,89496	1,24023
32,90513	1,24512
32,91529	1,24512
32,92545	1,25000
32,93561	1,24023
32,94577	1,25000
32,95594	1,24023
32,96610	1,24512
32,97626	1,24512
32,98642	1,24023
32,99659	1,24512
33,00675	1,24023
33,01691	1,24512
33,02707	1,24512
33,03723	1,24023
33,04740	1,24512
33,05756	1,24023
33,06772	1,24023
33,07788	1,24512
33,08805	1,24512
33,09821	1,24512
33,10837	1,24023
33,11853	1,24023
33,12869	1,24023
33,13886	1,24023
33,14902	1,24512
33,15918	1,24512
33,16934	1,24023
33,17951	1,24023
33,18967	1,24023
33,19983	1,24023
33,20999	1,24023
33,22015	1,24512
33,23032	1,24512
33,24048	1,24512
33,25064	1,24512
33,26080	1,24512
33,27096	1,24512
33,28113	1,24023
33,29129	1,24023
33,30145	1,25488
33,31161	1,24512
33,32178	1,24512
33,33194	1,24512
33,34210	1,24023
33,35226	1,24512
33,36242	1,24023
33,37259	1,24512
33,38275	1,24023
33,39291	1,24512
33,40307	1,24023
33,41324	1,25000
33,42340	1,24023
33,43356	1,24023
33,44372	1,24023
33,45388	1,24512
33,46405	1,24512
33,47421	1,24023
33,48437	1,24512
33,49453	1,24512
33,50469	1,24512
33,51486	1,25000
33,52502	1,23535
33,53518	1,24512
33,54534	1,25488
33,55551	1,24023
33,56567	1,24512
33,57583	1,24023
33,58599	1,24512
33,59615	1,24023
33,60632	1,24512
33,61648	1,24512
33,62664	1,24512
33,63680	1,24023
33,64697	1,24512
33,65713	1,24023
33,66729	1,24512
33,67745	1,24512
33,68761	1,24023
33,69778	1,25000
33,70794	1,24512
33,71810	1,24512
33,72826	1,25000
33,73842	1,24023
33,74859	1,24512
33,75875	1,24023
33,76891	1,24512
33,77907	1,25000
33,78924	1,24512
33,79940	1,24023
33,80956	1,24512
33,81972	1,24023
33,82988	1,24512
33,84005	1,24512
33,85021	1,24512
33,86037	1,24512
33,87053	1,24023
33,88070	1,25000
33,89086	1,23535
33,90102	1,24023
33,91118	1,25000
33,92134	1,24023
33,93151	1,24023
33,94167	1,24023
33,95183	1,23535
33,96199	1,24512
33,97215	1,24023
33,98232	1,24512
33,99248	1,24512
34,00264	1,24023
34,01280	1,24512
34,02297	1,24023
34,03313	1,24512
34,04329	1,24023
34,05345	1,24023
34,06361	1,23535
34,07378	1,24512
34,08394	1,24512
34,09410	1,24023
34,10426	1,24512
34,11443	1,24512
34,12459	1,24512
34,13475	1,24023
34,14491	1,24512
34,15507	1,24512
34,16524	1,24512
34,17540	1,24512
34,18556	1,24023
34,19572	1,24512
34,20588	1,24512
34,21605	1,25000
34,22621	1,24512
34,23637	1,24512
34,24653	1,24512
34,25670	1,24512
34,26686	1,23535
34,27702	1,24512
34,28718	1,23535
34,29734	1,24512
34,30751	1,23535
34,31767	1,24512
34,32783	1,24023
34,33799	1,24512
34,34816	1,24512
34,35832	1,24512
34,36848	1,24512
34,37864	1,25000
34,38880	1,24512
34,39897	1,24512
34,40913	1,24512
34,41929	1,24512
34,42945	1,24512
34,43961	1,24512
34,44978	1,24512
34,45994	1,24023
34,47010	1,24512
34,48026	1,24023
34,49043	1,25000
34,50059	1,24512
34,51075	1,24512
34,52091	1,24512
34,53107	1,24512
34,54124	1,24512
34,55140	1,24512
34,56156	1,24512
34,57172	1,24023
34,58189	1,24512
34,59205	1,24023
34,60221	1,24512
34,61237	1,25000
34,62253	1,24023
34,63270	1,24512
34,64286	1,24512
34,65302	1,24512
34,66318	1,24512
34,67334	1,24023
34,68351	1,24512
34,69367	1,24512
34,70383	1,24512
34,71399	1,24512
34,72416	1,24512
34,73432	1,24023
34,74448	1,24023
34,75464	1,24512
34,76480	1,24512
34,77497	1,24512
34,78513	1,24512
34,79529	1,24512
34,80545	1,24512
34,81562	1,24512
34,82578	1,24023
34,83594	1,24512
34,84610	1,24512
34,85626	1,24023
34,86643	1,24512
34,87659	1,24023
34,88675	1,25000
34,89691	1,24512
34,90707	1,24512
34,91724	1,24512
34,92740	1,24512
34,93756	1,24512
34,94772	1,25000
34,95789	1,24512
34,96805	1,25000
34,97821	1,24512
34,98837	1,24023
34,99853	1,24512
35,00870	1,25000
35,01886	1,24512
35,02902	1,25000
35,03918	1,24023
35,04935	1,25488
35,05951	1,24512
35,06967	1,23535
35,07983	1,24512
35,08999	1,23535
35,10016	1,24512
35,11032	1,24512
35,12048	1,24023
35,13064	1,25000
35,14081	1,24512
35,15097	1,25000
35,16113	1,25000
35,17129	1,25000
35,18145	1,24512
35,19162	1,24023
35,20178	1,24512
35,21194	1,24512
35,22210	1,24023
35,23226	1,25000
35,24243	1,24512
35,25259	1,24512
35,26275	1,25000
35,27291	1,24512
35,28308	1,24512
35,29324	1,24023
35,30340	1,24023
35,31356	1,24023
35,32372	1,24023
35,33389	1,24512
35,34405	1,25000
35,35421	1,24023
35,36437	1,24023
35,37454	1,24512
35,38470	1,24512
35,39486	1,25000
35,40502	1,24512
35,41518	1,24512
35,42535	1,25000
35,43551	1,24512
35,44567	1,24023
35,45583	1,24512
35,46599	1,24512
35,47616	1,24023
35,48632	1,24512
35,49648	1,24512
35,50664	1,25000
35,51681	1,24512
35,52697	1,24512
35,53713	1,25000
35,54729	1,24023
35,55745	1,25488
35,56762	1,24512
35,57778	1,24023
35,58794	1,24023
35,59810	1,24512
35,60827	1,24023
35,61843	1,24023
35,62859	1,25488
35,63875	1,24023
35,64891	1,25000
35,65908	1,24512
35,66924	1,24023
35,67940	1,25000
35,68956	1,24023
35,69972	1,24512
35,70989	1,24512
35,72005	1,24023
35,73021	1,25000
35,74037	1,24023
35,75054	1,24512
35,76070	1,24023
35,77086	1,24023
35,78102	1,25977
35,79118	1,24023
35,80135	1,24512
35,81151	1,24512
35,82167	1,24512
35,83183	1,24512
35,84200	1,24512
35,85216	1,24512
35,86232	1,24512
35,87248	1,24023
35,88264	1,24512
35,89281	1,24512
35,90297	1,24023
35,91313	1,24023
35,92329	1,24512
35,93345	1,24512
35,94362	1,24023
35,95378	1,25000
35,96394	1,24512
35,97410	1,24512
35,98427	1,24023
35,99443	1,24512
36,00459	1,23535
36,01475	1,24512
36,02491	1,24512
36,03508	1,24023
36,04524	1,24512
36,05540	1,24023
36,06556	1,25000
36,07573	1,24023
36,08589	1,24512
36,09605	1,25977
36,10621	1,24023
36,11637	1,25000
36,12654	1,24512
36,13670	1,24023
36,14686	1,24023
36,15702	1,24023
36,16718	1,25000
36,17735	1,24512
36,18751	1,25000
36,19767	1,24512
36,20783	1,24512
36,21800	1,24512
36,22816	1,24512
36,23832	1,25488
36,24848	1,24512
36,25864	1,24512
36,26881	1,23535
36,27897	1,24512
36,28913	1,24023
36,29929	1,24512
36,30946	1,24512
36,31962	1,24512
36,32978	1,24512
36,33994	1,24023
36,35010	1,24512
36,36027	1,24512
36,37043	1,24512
36,38059	1,24512
36,39075	1,24512
36,40091	1,24023
36,41108	1,24512
36,42124	1,24023
36,43140	1,24512
36,44156	1,24023
36,45173	1,24512
36,46189	1,24512
36,47205	1,23535
36,48221	1,24512
36,49237	1,24023
36,50254	1,25000
36,51270	1,24512
36,52286	1,24023
36,53302	1,24512
36,54319	1,24512
36,55335	1,24023
36,56351	1,24512
36,57367	1,25000
36,58383	1,24512
36,59400	1,25000
36,60416	1,24023
36,61432	1,24023
36,62448	1,24512
36,63464	1,24512
36,64481	1,24023
36,65497	1,24023
36,66513	1,24512
36,67529	1,25000
36,68546	1,24023
36,69562	1,24512
36,70578	1,24023
36,71594	1,25000
36,72610	1,25000
36,73627	1,24023
36,74643	1,24512
36,75659	1,24023
36,76675	1,24512
36,77692	1,24512
36,78708	1,23535
36,79724	1,25000
36,80740	1,24512
36,81756	1,24512
36,82773	1,24512
36,83789	1,25000
36,84805	1,24512
36,85821	1,24512
36,86837	1,24512
36,87854	1,24512
36,88870	1,24512
36,89886	1,24512
36,90902	1,24512
36,91919	1,24023
36,92935	1,24512
36,93951	1,24023
36,94967	1,25000
36,95983	1,24512
36,97000	1,24512
36,98016	1,24512
36,99032	1,24512
37,00048	1,25000
37,01065	1,24023
37,02081	1,24512
37,03097	1,24512
37,04113	1,24512
37,05129	1,24023
37,06146	1,24512
37,07162	1,24512
37,08178	1,25000
37,09194	1,24512
37,10211	1,24512
37,11227	1,25488
37,12243	1,24512
37,13259	1,23535
37,14275	1,24512
37,15292	1,24512
37,16308	1,24512
37,17324	1,24023
37,18340	1,24512
37,19356	1,24512
37,20373	1,24023
37,21389	1,25000
37,22405	1,25488
37,23421	1,24512
37,24438	1,25000
37,25454	1,25000
37,26470	1,25000
37,27486	1,24512
37,28502	1,24512
37,29519	1,25000
37,30535	1,24023
37,31551	1,24512
37,32567	1,24512
37,33584	1,24512
37,34600	1,24512
37,35616	1,24023
37,36632	1,24023
37,37648	1,24512
37,38665	1,24512
37,39681	1,25000
37,40697	1,25000
37,41713	1,24512
37,42729	1,25000
37,43746	1,24512
37,44762	1,25000
37,45778	1,24512
37,46794	1,24023
37,47811	1,24512
37,48827	1,24023
37,49843	1,25000
37,50859	1,24512
37,51875	1,24512
37,52892	1,24512
37,53908	1,25000
37,54924	1,24512
37,55940	1,24512
37,56957	1,24512
37,57973	1,24512
37,58989	1,24512
37,60005	1,24512
37,61021	1,24023
37,62038	1,25000
37,63054	1,25000
37,64070	1,24512
37,65086	1,24023
37,66102	1,24512
37,67119	1,24023
37,68135	1,25000
37,69151	1,24023
37,70167	1,24023
37,71184	1,24512
37,72200	1,24023
37,73216	1,25488
37,74232	1,24023
37,75248	1,24512
37,76265	1,24512
37,77281	1,24512
37,78297	1,24512
37,79313	1,24512
37,80330	1,24512
37,81346	1,25488
37,82362	1,24023
37,83378	1,25488
37,84394	1,24023
37,85411	1,24512
37,86427	1,24512
37,87443	1,24023
37,88459	1,24512
37,89475	1,24512
37,90492	1,24023
37,91508	1,24023
37,92524	1,24512
37,93540	1,24023
37,94557	1,25000
37,95573	1,24023
37,96589	1,24512
37,97605	1,24512
37,98621	1,24023
37,99638	1,25000
38,00654	1,24512
38,01670	1,24023
38,02686	1,24512
38,03703	1,24023
38,04719	1,24023
38,05735	1,24023
38,06751	1,25000
38,07767	1,24512
38,08784	1,24023
38,09800	1,24512
38,10816	1,24023
38,11832	1,24512
38,12848	1,24512
38,13865	1,23535
38,14881	1,24512
38,15897	1,24023
38,16913	1,24512
38,17930	1,24512
38,18946	1,24023
38,19962	1,24023
38,20978	1,24023
38,21994	1,24512
38,23011	1,24512
38,24027	1,24023
38,25043	1,24512
38,26059	1,24512
38,27076	1,24023
38,28092	1,24512
38,29108	1,23535
38,30124	1,24512
38,31140	1,24023
38,32157	1,24023
38,33173	1,24512
38,34189	1,24023
38,35205	1,24023
38,36221	1,25000
38,37238	1,24023
38,38254	1,24023
38,39270	1,24512
38,40286	1,24023
38,41303	1,25000
38,42319	1,24023
38,43335	1,24512
38,44351	1,24023
38,45367	1,24023
38,46384	1,24512
38,47400	1,24512
38,48416	1,24512
38,49432	1,24512
38,50449	1,24512
38,51465	1,25000
38,52481	1,24023
38,53497	1,24512
38,54513	1,25000
38,55530	1,24023
38,56546	1,24512
38,57562	1,25000
38,58578	1,24512
38,59594	1,24512
38,60611	1,24512
38,61627	1,24512
38,62643	1,24023
38,63659	1,25000
38,64676	1,24023
38,65692	1,24512
38,66708	1,24512
38,67724	1,24512
38,68740	1,24023
38,69757	1,25000
38,70773	1,24512
38,71789	1,24023
38,72805	1,25488
38,73822	1,24023
38,74838	1,24512
38,75854	1,24023
38,76870	1,24512
38,77886	1,24512
38,78903	1,24512
38,79919	1,24512
38,80935	1,24512
38,81951	1,24512
38,82967	1,24512
38,83984	1,24023
38,85000	1,24512
38,86016	1,24512
38,87032	1,24023
38,88049	1,24512
38,89065	1,24512
38,90081	1,24023
38,91097	1,24512
38,92113	1,25000
38,93130	1,25000
38,94146	1,24512
38,95162	1,24512
38,96178	1,24512
38,97195	1,24512
38,98211	1,25488
38,99227	1,24512
39,00243	1,24023
39,01259	1,24512
39,02276	1,24512
39,03292	1,24512
39,04308	1,24512
39,05324	1,24023
39,06341	1,24512
39,07357	1,24512
39,08373	1,24512
39,09389	1,24512
39,10405	1,24512
39,11422	1,25000
39,12438	1,24023
39,13454	1,24023
39,14470	1,25000
39,15486	1,25000
39,16503	1,24512
39,17519	1,24512
39,18535	1,24512
39,19551	1,25000
39,20568	1,24023
39,21584	1,25488
39,22600	1,24512
39,23616	1,24023
39,24632	1,24512
39,25649	1,24023
39,26665	1,24512
39,27681	1,24512
39,28697	1,24023
39,29714	1,25000
39,30730	1,24512
39,31746	1,24023
39,32762	1,24512
39,33778	1,24023
39,34795	1,25000
39,35811	1,24512
39,36827	1,24023
39,37843	1,25488
39,38859	1,24512
39,39876	1,25000
39,40892	1,25000
39,41908	1,24023
39,42924	1,24512
39,43941	1,24512
39,44957	1,25488
39,45973	1,25000
39,46989	1,24023
39,48005	1,24512
39,49022	1,23535
39,50038	1,24512
39,51054	1,24023
39,52070	1,24023
39,53087	1,24512
39,54103	1,24023
39,55119	1,24512
39,56135	1,25000
39,57151	1,24512
39,58168	1,24512
39,59184	1,24512
39,60200	1,24023
39,61216	1,24512
39,62232	1,24023
39,63249	1,24512
39,64265	1,24023
39,65281	1,24512
39,66297	1,24512
39,67314	1,24512
39,68330	1,24512
39,69346	1,24512
39,70362	1,24512
39,71378	1,24512
39,72395	1,24512
39,73411	1,24023
39,74427	1,25000
39,75443	1,24023
39,76460	1,25000
39,77476	1,24512
39,78492	1,24023
39,79508	1,25000
39,80524	1,24512
39,81541	1,25000
39,82557	1,24512
39,83573	1,24512
39,84589	1,24512
39,85605	1,24023
39,86622	1,24512
39,87638	1,24512
39,88654	1,24023
39,89670	1,24512
39,90687	1,24512
39,91703	1,24023
39,92719	1,24023
39,93735	1,24023
39,94751	1,24512
39,95768	1,24023
39,96784	1,24023
39,97800	1,24023
39,98816	1,24512
39,99833	1,24512
40,00849	1,24512
40,01865	1,24023
40,02881	1,24512
40,03897	1,24512
40,04914	1,24512
40,05930	1,24023
40,06946	1,24512
40,07962	1,25000
40,08978	1,24023
40,09995	1,25000
40,11011	1,24512
40,12027	1,24023
40,13043	1,24512
40,14060	1,24512
40,15076	1,24023
40,16092	1,24512
40,17108	1,25000
40,18124	1,24512
40,19141	1,24023
40,20157	1,25000
40,21173	1,24512
40,22189	1,24023
40,23206	1,25000
40,24222	1,24512
40,25238	1,24023
40,26254	1,24512
40,27270	1,24023
40,28287	1,24512
40,29303	1,25000
40,30319	1,25000
40,31335	1,24512
40,32351	1,24512
40,33368	1,24023
40,34384	1,24512
40,35400	1,24023
40,36416	1,24512
40,37433	1,25000
40,38449	1,24512
40,39465	1,24023
40,40481	1,24512
40,41497	1,24512
40,42514	1,24023
40,43530	1,24512
40,44546	1,24512
40,45562	1,24512
40,46579	1,24512
40,47595	1,24512
40,48611	1,24023
40,49627	1,25000
40,50643	1,24023
40,51660	1,24512
40,52676	1,24512
40,53692	1,24512
40,54708	1,24512
40,55724	1,24023
40,56741	1,24023
40,57757	1,25000
40,58773	1,24023
40,59789	1,24512
40,60806	1,24023
40,61822	1,25000
40,62838	1,24512
40,63854	1,24512
40,64870	1,24512
40,65887	1,24512
40,66903	1,24023
40,67919	1,24512
40,68935	1,24512
40,69952	1,24512
40,70968	1,24512
40,71984	1,24512
40,73000	1,24512
40,74016	1,24512
40,75033	1,24512
40,76049	1,24512
40,77065	1,24512
40,78081	1,24512
40,79097	1,24023
40,80114	1,24023
40,81130	1,25000
40,82146	1,24023
40,83162	1,24512
40,84179	1,24023
40,85195	1,24023
40,86211	1,24512
40,87227	1,23535
40,88243	1,25000
40,89260	1,24512
40,90276	1,25000
40,91292	1,24512
40,92308	1,24512
40,93325	1,24512
40,94341	1,24512
40,95357	1,24023
40,96373	1,24512
40,97389	1,23535
40,98406	1,24512
40,99422	1,24512
41,00438	1,24023
41,01454	1,24023
41,02471	1,24023
41,03487	1,24023
41,04503	1,24512
41,05519	1,24023
41,06535	1,24512
41,07552	1,24023
41,08568	1,24512
41,09584	1,24512
41,10600	1,24023
41,11616	1,24512
41,12633	1,24512
41,13649	1,24023
41,14665	1,25000
41,15681	1,24023
41,16698	1,24023
41,17714	1,24023
41,18730	1,24023
41,19746	1,23535
41,20762	1,24512
41,21779	1,24512
41,22795	1,24512
41,23811	1,24512
41,24827	1,24512
41,25844	1,24512
41,26860	1,24023
41,27876	1,24512
41,28892	1,24512
41,29908	1,24512
41,30925	1,24512
41,31941	1,24512
41,32957	1,25488
41,33973	1,24512
41,34989	1,24512
41,36006	1,24512
41,37022	1,24023
41,38038	1,25000
41,39054	1,24023
41,40071	1,24512
41,41087	1,24512
41,42103	1,24023
41,43119	1,25000
41,44135	1,25488
41,45152	1,24023
41,46168	1,24023
41,47184	1,23535
41,48200	1,24512
41,49217	1,24023
41,50233	1,24512
41,51249	1,25000
41,52265	1,24023
41,53281	1,24512
41,54298	1,25000
41,55314	1,24512
41,56330	1,24512
41,57346	1,24023
41,58362	1,24512
41,59379	1,24512
41,60395	1,23535
41,61411	1,24512
41,62427	1,24512
41,63444	1,25488
41,64460	1,24023
41,65476	1,23535
41,66492	1,24023
41,67508	1,23535
41,68525	1,24023
41,69541	1,24512
41,70557	1,24023
41,71573	1,24512
41,72590	1,25000
41,73606	1,24512
41,74622	1,25000
41,75638	1,24512
41,76654	1,25000
41,77671	1,24023
41,78687	1,24512
41,79703	1,25000
41,80719	1,24512
41,81735	1,24512
41,82752	1,24512
41,83768	1,25000
41,84784	1,24512
41,85800	1,25000
41,86817	1,24512
41,87833	1,25000
41,88849	1,23535
41,89865	1,24512
41,90881	1,24512
41,91898	1,24023
41,92914	1,24512
41,93930	1,24023
41,94946	1,24512
41,95963	1,24512
41,96979	1,24023
41,97995	1,24512
41,99011	1,24023
42,00027	1,24512
42,01044	1,24512
42,02060	1,24512
42,03076	1,24512
42,04092	1,24023
42,05108	1,24512
42,06125	1,24512
42,07141	1,24023
42,08157	1,24512
42,09173	1,24512
42,10190	1,24023
42,11206	1,24512
42,12222	1,24512
42,13238	1,24023
42,14254	1,24512
42,15271	1,24512
42,16287	1,24512
42,17303	1,24512
42,18319	1,25000
42,19336	1,24512
42,20352	1,24512
42,21368	1,24512
42,22384	1,24512
42,23400	1,24023
42,24417	1,24512
42,25433	1,24023
42,26449	1,25000
42,27465	1,24023
42,28481	1,24512
42,29498	1,24512
42,30514	1,24023
42,31530	1,25000
42,32546	1,25488
42,33563	1,24023
42,34579	1,24512
42,35595	1,24023
42,36611	1,24512
42,37627	1,24512
42,38644	1,25488
42,39660	1,24023
42,40676	1,24512
42,41692	1,25000
42,42709	1,24512
42,43725	1,24512
42,44741	1,24023
42,45757	1,24512
42,46773	1,24023
42,47790	1,24512
42,48806	1,24023
42,49822	1,24023
42,50838	1,24512
42,51854	1,24023
42,52871	1,24023
42,53887	1,24512
42,54903	1,24023
42,55919	1,24512
42,56936	1,24512
42,57952	1,24512
42,58968	1,24023
42,59984	1,24512
42,61000	1,24512
42,62017	1,24023
42,63033	1,24512
42,64049	1,24512
42,65065	1,24512
42,66082	1,24512
42,67098	1,23535
42,68114	1,24023
42,69130	1,24023
42,70146	1,24023
42,71163	1,25488
42,72179	1,24023
42,73195	1,24023
42,74211	1,24512
42,75227	1,24512
42,76244	1,24512
42,77260	1,25000
42,78276	1,24512
42,79292	1,24512
42,80309	1,24023
42,81325	1,24512
42,82341	1,24023
42,83357	1,24512
42,84373	1,24023
42,85390	1,25000
42,86406	1,24023
42,87422	1,25000
42,88438	1,24023
42,89455	1,25000
42,90471	1,24023
42,91487	1,24512
42,92503	1,24512
42,93519	1,24512
42,94536	1,23535
42,95552	1,24512
42,96568	1,24512
42,97584	1,24512
42,98600	1,24023
42,99617	1,24512
43,00633	1,24023
43,01649	1,24023
43,02665	1,24512
43,03682	1,24023
43,04698	1,24512
43,05714	1,24512
43,06730	1,24512
43,07746	1,24512
43,08763	1,24023
43,09779	1,24512
43,10795	1,24023
43,11811	1,25000
43,12828	1,25000
43,13844	1,24512
43,14860	1,24512
43,15876	1,24023
43,16892	1,24023
43,17909	1,24512
43,18925	1,24023
43,19941	1,24512
43,20957	1,25000
43,21974	1,24023
43,22990	1,24023
43,24006	1,24512
43,25022	1,24512
43,26038	1,23535
43,27055	1,24023
43,28071	1,23535
43,29087	1,24512
43,30103	1,24512
43,31119	1,24023
43,32136	1,24023
43,33152	1,25000
43,34168	1,24023
43,35184	1,23535
43,36201	1,24512
43,37217	1,24023
43,38233	1,24512
43,39249	1,24512
43,40265	1,24512
43,41282	1,24023
43,42298	1,24023
43,43314	1,24023
43,44330	1,24512
43,45347	1,24023
43,46363	1,24023
43,47379	1,24512
43,48395	1,24023
43,49411	1,25000
43,50428	1,24512
43,51444	1,24512
43,52460	1,24512
43,53476	1,24512
43,54492	1,24023
43,55509	1,23535
43,56525	1,24023
43,57541	1,24023
43,58557	1,25000
43,59574	1,24512
43,60590	1,24023
43,61606	1,24512
43,62622	1,24023
43,63638	1,24512
43,64655	1,25000
43,65671	1,24512
43,66687	1,24512
43,67703	1,24023
43,68720	1,24023
43,69736	1,25000
43,70752	1,24512
43,71768	1,24512
43,72784	1,24512
43,73801	1,23535
43,74817	1,24512
43,75833	1,24023
43,76849	1,25000
43,77865	1,24512
43,78882	1,24512
43,79898	1,25000
43,80914	1,24023
43,81930	1,25000
43,82947	1,24512
43,83963	1,24512
43,84979	1,25000
43,85995	1,24023
43,87011	1,24512
43,88028	1,24512
43,89044	1,24512
43,90060	1,24512
43,91076	1,24023
43,92093	1,24023
43,93109	1,25000
43,94125	1,25000
43,95141	1,25000
43,96157	1,24023
43,97174	1,24023
43,98190	1,24512
43,99206	1,25000
44,00222	1,24512
44,01238	1,25000
44,02255	1,24023
44,03271	1,24512
44,04287	1,24512
44,05303	1,24512
44,06320	1,24512
44,07336	1,24023
44,08352	1,24512
44,09368	1,24512
44,10384	1,23535
44,11401	1,24512
44,12417	1,24512
44,13433	1,25000
44,14449	1,23535
44,15466	1,24023
44,16482	1,24512
44,17498	1,24512
44,18514	1,24512
44,19530	1,24512
44,20547	1,24512
44,21563	1,24512
44,22579	1,25488
44,23595	1,24512
44,24611	1,24512
44,25628	1,24512
44,26644	1,24512
44,27660	1,24512
44,28676	1,24512
44,29693	1,24512
44,30709	1,24023
44,31725	1,25488
44,32741	1,25000
44,33757	1,24023
44,34774	1,24023
44,35790	1,24512
44,36806	1,24512
44,37822	1,24512
44,38839	1,24512
44,39855	1,25000
44,40871	1,24023
44,41887	1,24512
44,42903	1,25000
44,43920	1,24023
44,44936	1,24512
44,45952	1,24512
44,46968	1,23535
44,47984	1,24512
44,49001	1,24023
44,50017	1,24512
44,51033	1,24023
44,52049	1,23535
44,53066	1,24512
44,54082	1,24512
44,55098	1,24512
44,56114	1,25000
44,57130	1,24023
44,58147	1,24512
44,59163	1,24023
44,60179	1,24512
44,61195	1,24512
44,62212	1,24512
44,63228	1,24512
44,64244	1,24512
44,65260	1,24512
44,66276	1,24512
44,67293	1,24512
44,68309	1,25000
44,69325	1,24512
44,70341	1,24023
44,71357	1,24512
44,72374	1,24023
44,73390	1,24512
44,74406	1,25000
44,75422	1,24023
44,76439	1,24512
44,77455	1,24512
44,78471	1,24512
44,79487	1,25000
44,80503	1,24023
44,81520	1,25000
44,82536	1,24023
44,83552	1,24512
44,84568	1,25000
44,85585	1,25000
44,86601	1,24023
44,87617	1,24512
44,88633	1,24512
44,89649	1,25000
44,90666	1,24512
44,91682	1,24512
44,92698	1,24512
44,93714	1,24512
44,94730	1,24512
44,95747	1,24023
44,96763	1,24023
44,97779	1,25000
44,98795	1,24512
44,99812	1,24512
45,00828	1,24023
45,01844	1,24512
45,02860	1,24512
45,03876	1,24512
45,04893	1,24512
45,05909	1,24512
45,06925	1,24512
45,07941	1,25000
45,08958	1,24512
45,09974	1,24512
45,10990	1,24512
45,12006	1,24023
45,13022	1,24512
45,14039	1,24512
45,15055	1,25000
45,16071	1,24512
45,17087	1,24512
45,18104	1,25000
45,19120	1,24023
45,20136	1,24512
45,21152	1,24512
45,22168	1,24512
45,23185	1,24023
45,24201	1,24512
45,25217	1,24023
45,26233	1,24512
45,27249	1,24023
45,28266	1,24512
45,29282	1,23535
45,30298	1,24023
45,31314	1,25000
45,32331	1,24023
45,33347	1,24512
45,34363	1,25000
45,35379	1,24023
45,36395	1,24512
45,37412	1,23535
45,38428	1,25000
45,39444	1,24023
45,40460	1,24023
45,41477	1,24023
45,42493	1,24512
45,43509	1,24512
45,44525	1,25000
45,45541	1,25000
45,46558	1,24512
45,47574	1,24512
45,48590	1,24512
45,49606	1,24512
45,50622	1,24023
45,51639	1,24512
45,52655	1,25000
45,53671	1,24512
45,54687	1,25000
45,55704	1,24512
45,56720	1,24023
45,57736	1,24512
45,58752	1,24023
45,59768	1,24512
45,60785	1,24512
45,61801	1,24023
45,62817	1,24512
45,63833	1,25488
45,64850	1,24512
45,65866	1,24512
45,66882	1,24512
45,67898	1,25000
45,68914	1,24023
45,69931	1,25000
45,70947	1,24512
45,71963	1,24023
45,72979	1,24512
45,73995	1,24023
45,75012	1,25000
45,76028	1,24023
45,77044	1,24023
45,78060	1,25000
45,79077	1,24512
45,80093	1,24512
45,81109	1,24512
45,82125	1,23535
45,83141	1,25000
45,84158	1,24512
45,85174	1,24512
45,86190	1,24512
45,87206	1,24512
45,88223	1,24023
45,89239	1,24512
45,90255	1,24512
45,91271	1,24512
45,92287	1,24512
45,93304	1,24512
45,94320	1,24023
45,95336	1,25000
45,96352	1,24023
45,97368	1,24512
45,98385	1,24512
45,99401	1,24512
46,00417	1,24023
46,01433	1,24512
46,02450	1,24512
46,03466	1,24512
46,04482	1,24512
46,05498	1,24512
46,06514	1,24023
46,07531	1,24512
46,08547	1,24023
46,09563	1,25488
46,10579	1,24512
46,11596	1,24512
46,12612	1,25000
46,13628	1,24023
46,14644	1,24512
46,15660	1,24023
46,16677	1,24512
46,17693	1,25000
46,18709	1,24023
46,19725	1,24512
46,20741	1,24023
46,21758	1,24023
46,22774	1,25000
46,23790	1,24512
46,24806	1,25000
46,25823	1,24512
46,26839	1,24023
46,27855	1,24512
46,28871	1,24023
46,29887	1,24023
46,30904	1,24023
46,31920	1,24512
46,32936	1,25000
46,33952	1,25488
46,34969	1,24023
46,35985	1,24512
46,37001	1,24023
46,38017	1,24023
46,39033	1,24512
46,40050	1,24512
46,41066	1,24512
46,42082	1,24023
46,43098	1,24512
46,44114	1,23535
46,45131	1,24512
46,46147	1,24512
46,47163	1,24023
46,48179	1,24512
46,49196	1,24023
46,50212	1,24023
46,51228	1,24023
46,52244	1,24023
46,53260	1,24512
46,54277	1,24512
46,55293	1,24023
46,56309	1,25000
46,57325	1,24023
46,58342	1,24512
46,59358	1,24512
46,60374	1,24023
46,61390	1,25000
46,62406	1,24512
46,63423	1,25000
46,64439	1,24512
46,65455	1,24023
46,66471	1,24512
46,67487	1,24512
46,68504	1,24512
46,69520	1,24512
46,70536	1,24512
46,71552	1,24023
46,72569	1,24512
46,73585	1,24023
46,74601	1,24512
46,75617	1,24023
46,76633	1,24023
46,77650	1,24512
46,78666	1,24023
46,79682	1,24512
46,80698	1,24023
46,81715	1,24512
46,82731	1,24512
46,83747	1,24023
46,84763	1,25488
46,85779	1,24512
46,86796	1,24023
46,87812	1,24023
46,88828	1,24512
46,89844	1,24512
46,90860	1,25000
46,91877	1,24023
46,92893	1,24512
46,93909	1,24512
46,94925	1,24512
46,95942	1,24512
46,96958	1,24512
46,97974	1,24023
46,98990	1,24023
47,00006	1,24023
47,01023	1,24512
47,02039	1,24512
47,03055	1,25000
47,04071	1,24512
47,05088	1,24512
47,06104	1,24512
47,07120	1,25000
47,08136	1,24023
47,09152	1,24512
47,10169	1,24023
47,11185	1,25000
47,12201	1,24023
47,13217	1,24512
47,14234	1,25000
47,15250	1,25000
47,16266	1,24512
47,17282	1,24023
47,18298	1,24512
47,19315	1,25000
47,20331	1,24512
47,21347	1,25000
47,22363	1,24512
47,23379	1,24512
47,24396	1,24512
47,25412	1,25000
47,26428	1,24512
47,27444	1,24023
47,28461	1,24512
47,29477	1,24512
47,30493	1,24512
47,31509	1,24512
47,32525	1,24023
47,33542	1,24023
47,34558	1,24512
47,35574	1,24023
47,36590	1,24512
47,37607	1,24512
47,38623	1,24023
47,39639	1,24512
47,40655	1,24023
47,41671	1,24512
47,42688	1,24023
47,43704	1,24023
47,44720	1,24512
47,45736	1,24512
47,46752	1,24023
47,47769	1,24512
47,48785	1,24023
47,49801	1,24512
47,50817	1,24023
47,51834	1,24023
47,52850	1,24512
47,53866	1,24512
47,54882	1,24512
47,55898	1,24512
47,56915	1,24023
47,57931	1,24512
47,58947	1,24023
47,59963	1,24512
47,60980	1,24512
47,61996	1,24023
47,63012	1,24023
47,64028	1,24023
47,65044	1,24512
47,66061	1,25000
47,67077	1,24512
47,68093	1,25000
47,69109	1,24512
47,70125	1,24512
47,71142	1,24512
47,72158	1,24512
47,73174	1,24023
47,74190	1,25000
47,75207	1,24023
47,76223	1,24512
47,77239	1,23535
47,78255	1,24512
47,79271	1,24512
47,80288	1,24512
47,81304	1,24512
47,82320	1,24023
47,83336	1,24512
47,84353	1,24512
47,85369	1,24512
47,86385	1,24512
47,87401	1,25000
47,88417	1,24512
47,89434	1,24512
47,90450	1,24023
47,91466	1,24512
47,92482	1,24512
47,93498	1,24023
47,94515	1,24023
47,95531	1,24023
47,96547	1,24512
47,97563	1,24023
47,98580	1,24023
47,99596	1,24512
48,00612	1,24512
48,01628	1,25000
48,02644	1,24512
48,03661	1,25000
48,04677	1,24512
48,05693	1,24512
48,06709	1,24512
48,07726	1,24512
48,08742	1,24512
48,09758	1,24512
48,10774	1,24512
48,11790	1,24512
48,12807	1,25000
48,13823	1,24023
48,14839	1,24512
48,15855	1,24512
48,16871	1,25000
48,17888	1,24512
48,18904	1,24023
48,19920	1,24023
48,20936	1,24512
48,21953	1,24512
48,22969	1,25000
48,23985	1,24023
48,25001	1,25000
48,26017	1,24023
48,27034	1,24512
48,28050	1,24512
48,29066	1,24023
48,30082	1,24023
48,31099	1,24512
48,32115	1,25000
48,33131	1,25977
48,34147	1,24512
48,35163	1,24512
48,36180	1,25000
48,37196	1,24023
48,38212	1,24512
48,39228	1,24512
48,40244	1,24512
48,41261	1,25000
48,42277	1,24023
48,43293	1,24512
48,44309	1,24512
48,45326	1,24512
48,46342	1,24512
48,47358	1,24512
48,48374	1,24512
48,49390	1,24512
48,50407	1,23535
48,51423	1,24512
48,52439	1,24512
48,53455	1,24023
48,54472	1,25977
48,55488	1,24023
48,56504	1,24512
48,57520	1,24512
48,58536	1,24512
48,59553	1,25000
48,60569	1,24023
48,61585	1,24512
48,62601	1,24512
48,63617	1,24512
48,64634	1,24512
48,65650	1,24512
48,66666	1,24512
48,67682	1,25000
48,68699	1,24023
48,69715	1,24512
48,70731	1,24023
48,71747	1,24512
48,72763	1,24023
48,73780	1,24512
48,74796	1,24512
48,75812	1,24512
48,76828	1,24512
48,77845	1,25000
48,78861	1,24512
48,79877	1,25000
48,80893	1,24512
48,81909	1,24023
48,82926	1,25000
48,83942	1,24512
48,84958	1,24023
48,85974	1,24512
48,86990	1,24023
48,88007	1,25000
48,89023	1,24512
48,90039	1,24512
48,91055	1,24512
48,92072	1,23535
48,93088	1,25000
48,94104	1,24023
48,95120	1,24512
48,96136	1,24512
48,97153	1,24512
48,98169	1,25000
48,99185	1,24512
49,00201	1,24512
49,01218	1,25000
49,02234	1,24512
49,03250	1,25488
49,04266	1,24023
49,05282	1,24512
49,06299	1,24512
49,07315	1,24512
49,08331	1,24512
49,09347	1,24512
49,10364	1,24512
49,11380	1,24512
49,12396	1,24512
49,13412	1,24023
49,14428	1,25000
49,15445	1,24512
49,16461	1,24512
49,17477	1,25000
49,18493	1,25000
49,19509	1,24512
49,20526	1,24512
49,21542	1,25488
49,22558	1,24512
49,23574	1,24512
49,24591	1,25000
49,25607	1,24023
49,26623	1,25000
49,27639	1,24512
49,28655	1,24512
49,29672	1,24512
49,30688	1,24512
49,31704	1,25000
49,32720	1,25000
49,33737	1,25000
49,34753	1,25000
49,35769	1,24023
49,36785	1,24512
49,37801	1,25488
49,38818	1,24512
49,39834	1,24512
49,40850	1,25000
49,41866	1,24512
49,42882	1,25000
49,43899	1,24512
49,44915	1,24512
49,45931	1,24023
49,46947	1,24023
49,47964	1,25977
49,48980	1,24023
49,49996	1,25000
49,51012	1,24512
49,52028	1,24512
49,53045	1,25000
49,54061	1,24512
49,55077	1,24512
49,56093	1,25000
49,57110	1,24512
49,58126	1,24512
49,59142	1,24023
49,60158	1,24512
49,61174	1,24512
49,62191	1,24023
49,63207	1,24023
49,64223	1,24512
49,65239	1,25000
49,66255	1,25000
49,67272	1,24512
49,68288	1,25000
49,69304	1,24512
49,70320	1,25000
49,71337	1,24512
49,72353	1,24512
49,73369	1,25000
49,74385	1,24512
49,75401	1,24512
49,76418	1,25000
49,77434	1,25000
49,78450	1,24023
49,79466	1,24512
49,80483	1,24023
49,81499	1,24023
49,82515	1,24512
49,83531	1,24512
49,84547	1,25000
49,85564	1,24023
49,86580	1,24512
49,87596	1,24512
49,88612	1,25000
49,89628	1,25000
49,90645	1,24512
49,91661	1,25000
49,92677	1,24512
49,93693	1,24512
49,94710	1,25000
49,95726	1,24023
49,96742	1,24023
49,97758	1,25000
49,98774	1,24023
49,99791	1,24512
50,00807	1,24512
50,01823	1,25000
50,02839	1,24512
50,03856	1,24512
50,04872	1,24512
50,05888	1,24023
50,06904	1,25000
50,07920	1,24023
50,08937	1,24512
50,09953	1,24512
50,10969	1,24512
50,11985	1,24512
50,13001	1,25000
50,14018	1,24512
50,15034	1,24512
50,16050	1,24512
50,17066	1,24512
50,18083	1,24512
50,19099	1,24512
50,20115	1,24023
50,21131	1,24512
50,22147	1,25000
50,23164	1,25488
50,24180	1,25000
50,25196	1,25000
50,26212	1,25000
50,27229	1,24512
50,28245	1,24512
50,29261	1,25000
50,30277	1,24512
50,31293	1,25000
50,32310	1,24512
50,33326	1,24512
50,34342	1,24512
50,35358	1,24512
50,36374	1,25000
50,37391	1,24512
50,38407	1,24512
50,39423	1,24512
50,40439	1,24023
50,41456	1,25000
50,42472	1,24512
50,43488	1,24023
50,44504	1,25000
50,45520	1,24512
50,46537	1,24512
50,47553	1,25488
50,48569	1,24023
50,49585	1,25000
50,50602	1,24512
50,51618	1,24512
50,52634	1,24512
50,53650	1,24512
50,54666	1,25000
50,55683	1,24512
50,56699	1,24023
50,57715	1,25000
50,58731	1,25000
50,59747	1,24512
50,60764	1,24512
50,61780	1,24512
50,62796	1,25000
50,63812	1,24023
50,64829	1,25000
50,65845	1,24512
50,66861	1,24023
50,67877	1,25000
50,68893	1,24023
50,69910	1,24512
50,70926	1,24512
50,71942	1,24512
50,72958	1,25000
50,73975	1,25000
50,74991	1,25000
50,76007	1,24512
50,77023	1,24512
50,78039	1,25000
50,79056	1,24023
50,80072	1,25000
50,81088	1,24512
50,82104	1,25000
50,83120	1,24512
50,84137	1,24512
50,85153	1,24512
50,86169	1,25000
50,87185	1,24512
50,88202	1,24512
50,89218	1,24512
50,90234	1,24512
50,91250	1,25488
50,92266	1,24512
50,93283	1,24512
50,94299	1,24512
50,95315	1,24512
50,96331	1,24512
50,97348	1,25000
50,98364	1,25000
50,99380	1,24512
51,00396	1,23535
51,01412	1,24512
51,02429	1,25000
51,03445	1,24512
51,04461	1,25000
51,05477	1,24023
51,06494	1,24512
51,07510	1,24512
51,08526	1,24023
51,09542	1,25000
51,10558	1,24023
51,11575	1,25000
51,12591	1,24512
51,13607	1,24512
51,14623	1,25000
51,15639	1,25488
51,16656	1,24023
51,17672	1,25000
51,18688	1,25000
51,19704	1,25000
51,20721	1,24512
51,21737	1,24512
51,22753	1,25000
51,23769	1,24512
51,24785	1,24023
51,25802	1,24512
51,26818	1,24512
51,27834	1,24023
51,28850	1,25000
51,29867	1,24512
51,30883	1,24512
51,31899	1,24512
51,32915	1,24512
51,33931	1,24512
51,34948	1,25000
51,35964	1,24023
51,36980	1,24512
51,37996	1,24512
51,39012	1,24512
51,40029	1,24023
51,41045	1,24512
51,42061	1,24512
51,43077	1,24512
51,44094	1,25000
51,45110	1,24023
51,46126	1,25000
51,47142	1,24512
51,48158	1,24512
51,49175	1,24512
51,50191	1,24512
51,51207	1,24512
51,52223	1,25000
51,53240	1,25000
51,54256	1,25000
51,55272	1,24023
51,56288	1,24512
51,57304	1,24023
51,58321	1,24512
51,59337	1,24512
51,60353	1,24023
51,61369	1,24512
51,62385	1,24512
51,63402	1,24512
51,64418	1,24512
51,65434	1,23535
51,66450	1,24512
51,67467	1,24023
51,68483	1,24512
51,69499	1,25000
51,70515	1,24512
51,71531	1,25488
51,72548	1,25000
51,73564	1,24512
51,74580	1,25000
51,75596	1,24023
51,76613	1,24512
51,77629	1,24512
51,78645	1,24023
51,79661	1,24512
51,80677	1,24512
51,81694	1,25000
51,82710	1,25000
51,83726	1,24512
51,84742	1,25000
51,85758	1,25000
51,86775	1,24512
51,87791	1,24023
51,88807	1,24512
51,89823	1,24512
51,90840	1,24023
51,91856	1,24023
51,92872	1,24512
51,93888	1,25000
51,94904	1,24512
51,95921	1,24512
51,96937	1,24512
51,97953	1,24512
51,98969	1,24512
51,99986	1,24512
52,01002	1,24512
52,02018	1,24023
52,03034	1,25000
52,04050	1,24512
52,05067	1,24512
52,06083	1,25000
52,07099	1,25000
52,08115	1,25000
52,09131	1,24512
52,10148	1,24512
52,11164	1,25000
52,12180	1,23535
52,13196	1,24512
52,14213	1,24512
52,15229	1,24512
52,16245	1,24512
52,17261	1,25488
52,18277	1,24512
52,19294	1,24512
52,20310	1,24512
52,21326	1,25000
52,22342	1,24512
52,23359	1,24512
52,24375	1,24023
52,25391	1,24512
52,26407	1,24512
52,27423	1,25000
52,28440	1,24512
52,29456	1,25000
52,30472	1,24023
52,31488	1,24512
52,32504	1,25000
52,33521	1,24512
52,34537	1,24512
52,35553	1,24023
52,36569	1,24512
52,37586	1,24512
52,38602	1,24023
52,39618	1,24512
52,40634	1,24512
52,41650	1,24512
52,42667	1,24512
52,43683	1,24512
52,44699	1,24512
52,45715	1,24512
52,46732	1,24512
52,47748	1,25000
52,48764	1,24512
52,49780	1,24512
52,50796	1,24512
52,51813	1,24512
52,52829	1,25000
52,53845	1,24512
52,54861	1,25000
52,55877	1,24512
52,56894	1,25488
52,57910	1,25000
52,58926	1,25000
52,59942	1,24512
52,60959	1,24512
52,61975	1,25488
52,62991	1,24023
52,64007	1,24512
52,65023	1,24512
52,66040	1,25000
52,67056	1,24512
52,68072	1,24512
52,69088	1,24023
52,70105	1,24512
52,71121	1,25000
52,72137	1,25000
52,73153	1,24512
52,74169	1,25000
52,75186	1,24023
52,76202	1,25000
52,77218	1,24512
52,78234	1,25000
52,79250	1,24512
52,80267	1,24512
52,81283	1,25000
52,82299	1,24512
52,83315	1,24512
52,84332	1,25000
52,85348	1,24512
52,86364	1,25000
52,87380	1,24512
52,88396	1,24512
52,89413	1,24512
52,90429	1,24512
52,91445	1,25000
52,92461	1,25000
52,93478	1,24023
52,94494	1,24512
52,95510	1,24512
52,96526	1,24512
52,97542	1,24512
52,98559	1,25000
52,99575	1,25000
53,00591	1,24512
53,01607	1,24023
53,02624	1,24512
53,03640	1,24023
53,04656	1,24512
53,05672	1,24512
53,06688	1,24023
53,07705	1,25000
53,08721	1,24512
53,09737	1,24512
53,10753	1,25000
53,11769	1,24512
53,12786	1,25000
53,13802	1,25000
53,14818	1,25488
53,15834	1,24512
53,16851	1,24512
53,17867	1,24512
53,18883	1,24512
53,19899	1,25000
53,20915	1,24512
53,21932	1,24512
53,22948	1,24512
53,23964	1,24023
53,24980	1,24512
53,25997	1,24512
53,27013	1,24512
53,28029	1,24512
53,29045	1,24023
53,30061	1,25000
53,31078	1,24512
53,32094	1,24512
53,33110	1,25000
53,34126	1,25000
53,35142	1,24512
53,36159	1,24023
53,37175	1,24512
53,38191	1,25488
53,39207	1,24512
53,40224	1,24023
53,41240	1,24512
53,42256	1,25000
53,43272	1,25000
53,44288	1,24512
53,45305	1,24512
53,46321	1,25000
53,47337	1,24512
53,48353	1,24023
53,49370	1,25000
53,50386	1,24023
53,51402	1,24512
53,52418	1,24512
53,53434	1,24023
53,54451	1,25000
53,55467	1,24023
53,56483	1,24512
53,57499	1,24512
53,58515	1,24512
53,59532	1,24512
53,60548	1,24512
53,61564	1,24512
53,62580	1,24512
53,63597	1,25000
53,64613	1,25000
53,65629	1,24512
53,66645	1,24512
53,67661	1,24512
53,68678	1,24512
53,69694	1,25000
53,70710	1,24512
53,71726	1,24512
53,72743	1,24512
53,73759	1,24512
53,74775	1,25000
53,75791	1,24512
53,76807	1,24512
53,77824	1,24512
53,78840	1,24512
53,79856	1,24512
53,80872	1,24512
53,81888	1,24023
53,82905	1,24023
53,83921	1,24512
53,84937	1,25000
53,85953	1,25488
53,86970	1,24512
53,87986	1,25000
53,89002	1,24512
53,90018	1,24512
53,91034	1,25000
53,92051	1,25000
53,93067	1,25000
53,94083	1,24512
53,95099	1,24512
53,96116	1,25000
53,97132	1,24512
53,98148	1,25000
53,99164	1,24512
54,00180	1,24512
54,01197	1,25000
54,02213	1,24512
54,03229	1,24512
54,04245	1,24512
54,05261	1,24512
54,06278	1,25000
54,07294	1,24512
54,08310	1,24512
54,09326	1,25000
54,10343	1,24512
54,11359	1,24512
54,12375	1,25000
54,13391	1,24512
54,14407	1,24023
54,15424	1,24023
54,16440	1,24512
54,17456	1,24512
54,18472	1,24512
54,19489	1,25000
54,20505	1,24512
54,21521	1,25000
54,22537	1,24512
54,23553	1,24512
54,24570	1,24512
54,25586	1,25000
54,26602	1,25977
54,27618	1,25000
54,28634	1,24512
54,29651	1,25000
54,30667	1,25000
54,31683	1,24512
54,32699	1,25000
54,33716	1,25488
54,34732	1,24512
54,35748	1,24512
54,36764	1,24512
54,37780	1,24512
54,38797	1,24023
54,39813	1,24512
54,40829	1,24512
54,41845	1,24023
54,42862	1,25000
54,43878	1,25000
54,44894	1,24512
54,45910	1,25000
54,46926	1,25000
54,47943	1,24512
54,48959	1,24512
54,49975	1,24512
54,50991	1,25000
54,52007	1,24512
54,53024	1,24512
54,54040	1,24512
54,55056	1,24512
54,56072	1,24512
54,57089	1,25000
54,58105	1,24512
54,59121	1,24512
54,60137	1,25000
54,61153	1,24512
54,62170	1,25488
54,63186	1,25000
54,64202	1,25000
54,65218	1,24023
54,66235	1,24512
54,67251	1,25488
54,68267	1,24512
54,69283	1,24512
54,70299	1,24023
54,71316	1,24512
54,72332	1,24023
54,73348	1,24512
54,74364	1,24512
54,75380	1,24512
54,76397	1,24512
54,77413	1,25000
54,78429	1,25000
54,79445	1,25488
54,80462	1,24512
54,81478	1,24512
54,82494	1,24023
54,83510	1,24512
54,84526	1,25000
54,85543	1,24023
54,86559	1,25000
54,87575	1,24512
54,88591	1,25000
54,89608	1,25000
54,90624	1,25000
54,91640	1,24512
54,92656	1,24512
54,93672	1,24512
54,94689	1,24512
54,95705	1,24512
54,96721	1,24512
54,97737	1,24023
54,98753	1,24512
54,99770	1,25000
55,00786	1,24512
55,01802	1,24023
55,02818	1,24512
55,03835	1,24512
55,04851	1,24512
55,05867	1,24512
55,06883	1,24023
55,07899	1,24512
55,08916	1,24512
55,09932	1,25488
55,10948	1,25000
55,11964	1,24512
55,12981	1,25000
55,13997	1,25000
55,15013	1,24512
55,16029	1,25000
55,17045	1,24023
55,18062	1,24512
55,19078	1,24512
55,20094	1,24512
55,21110	1,25000
55,22127	1,24512
55,23143	1,24512
55,24159	1,24512
55,25175	1,25000
55,26191	1,24512
55,27208	1,24512
55,28224	1,24512
55,29240	1,24512
55,30256	1,24512
55,31272	1,25000
55,32289	1,25000
55,33305	1,24512
55,34321	1,24512
55,35337	1,24512
55,36354	1,25000
55,37370	1,24023
55,38386	1,24512
55,39402	1,25000
55,40418	1,25000
55,41435	1,25000
55,42451	1,25000
55,43467	1,24512
55,44483	1,25000
55,45500	1,24512
55,46516	1,25000
55,47532	1,24512
55,48548	1,24512
55,49564	1,24512
55,50581	1,24512
55,51597	1,24512
55,52613	1,25000
55,53629	1,24512
55,54645	1,24512
55,55662	1,24512
55,56678	1,25000
55,57694	1,24512
55,58710	1,25000
55,59727	1,23535
55,60743	1,24512
55,61759	1,24512
55,62775	1,25000
55,63791	1,24512
55,64808	1,24512
55,65824	1,25000
55,66840	1,24023
55,67856	1,25000
55,68873	1,24512
55,69889	1,25000
55,70905	1,25000
55,71921	1,24512
55,72937	1,24512
55,73954	1,24512
55,74970	1,24512
55,75986	1,25977
55,77002	1,24023
55,78018	1,25000
55,79035	1,24512
55,80051	1,25000
55,81067	1,24512
55,82083	1,24512
55,83100	1,24512
55,84116	1,25000
55,85132	1,24023
55,86148	1,25000
55,87164	1,24512
55,88181	1,24512
55,89197	1,24512
55,90213	1,25000
55,91229	1,24512
55,92246	1,24512
55,93262	1,24512
55,94278	1,24512
55,95294	1,24512
55,96310	1,25000
55,97327	1,24512
55,98343	1,25000
55,99359	1,25000
56,00375	1,24512
56,01391	1,24512
56,02408	1,24023
56,03424	1,25488
56,04440	1,24512
56,05456	1,24512
56,06473	1,24512
56,07489	1,25000
56,08505	1,24512
56,09521	1,24512
56,10537	1,24512
56,11554	1,25000
56,12570	1,24512
56,13586	1,24512
56,14602	1,24512
56,15619	1,24023
56,16635	1,25000
56,17651	1,24512
56,18667	1,24023
56,19683	1,24512
56,20700	1,24023
56,21716	1,24512
56,22732	1,24512
56,23748	1,24023
56,24764	1,25000
56,25781	1,25488
56,26797	1,24023
56,27813	1,25000
56,28829	1,24512
56,29846	1,24512
56,30862	1,24023
56,31878	1,24023
56,32894	1,25000
56,33910	1,24512
56,34927	1,24512
56,35943	1,24512
56,36959	1,24512
56,37975	1,24512
56,38992	1,24512
56,40008	1,24512
56,41024	1,24512
56,42040	1,24023
56,43056	1,24023
56,44073	1,25000
56,45089	1,25488
56,46105	1,25000
56,47121	1,24512
56,48137	1,24512
56,49154	1,24512
56,50170	1,24512
56,51186	1,25000
56,52202	1,25000
56,53219	1,25000
56,54235	1,25000
56,55251	1,24023
56,56267	1,25000
56,57283	1,25000
56,58300	1,24512
56,59316	1,25000
56,60332	1,24023
56,61348	1,25000
56,62365	1,25000
56,63381	1,24512
56,64397	1,24512
56,65413	1,25000
56,66429	1,25488
56,67446	1,24512
56,68462	1,25000
56,69478	1,25000
56,70494	1,24023
56,71510	1,24512
56,72527	1,25977
56,73543	1,24023
56,74559	1,25000
56,75575	1,24512
56,76592	1,24512
56,77608	1,24512
56,78624	1,24512
56,79640	1,24512
56,80656	1,24512
56,81673	1,24512
56,82689	1,24512
56,83705	1,24512
56,84721	1,24512
56,85738	1,24512
56,86754	1,24512
56,87770	1,24512
56,88786	1,24512
56,89802	1,24512
56,90819	1,24512
56,91835	1,24512
56,92851	1,25000
56,93867	1,24512
56,94883	1,24512
56,95900	1,25000
56,96916	1,23535
56,97932	1,25488
56,98948	1,24023
56,99965	1,25000
57,00981	1,24512
57,01997	1,24512
57,03013	1,25000
57,04029	1,24512
57,05046	1,25000
57,06062	1,24512
57,07078	1,24512
57,08094	1,25488
57,09111	1,24512
57,10127	1,24512
57,11143	1,25488
57,12159	1,25000
57,13175	1,25000
57,14192	1,25000
57,15208	1,25000
57,16224	1,24023
57,17240	1,25000
57,18257	1,25000
57,19273	1,24512
57,20289	1,24512
57,21305	1,24512
57,22321	1,24512
57,23338	1,24512
57,24354	1,24512
57,25370	1,25000
57,26386	1,24512
57,27402	1,24512
57,28419	1,24512
57,29435	1,25488
57,30451	1,25000
57,31467	1,24512
57,32484	1,25000
57,33500	1,24512
57,34516	1,24512
57,35532	1,24512
57,36548	1,24512
57,37565	1,24512
57,38581	1,25000
57,39597	1,25000
57,40613	1,24023
57,41630	1,24512
57,42646	1,25000
57,43662	1,24023
57,44678	1,25000
57,45694	1,24512
57,46711	1,24512
57,47727	1,24512
57,48743	1,25000
57,49759	1,24512
57,50775	1,24512
57,51792	1,25000
57,52808	1,25000
57,53824	1,24023
57,54840	1,24512
57,55857	1,25000
57,56873	1,25000
57,57889	1,25000
57,58905	1,24512
57,59921	1,24512
57,60938	1,25000
57,61954	1,24512
57,62970	1,25000
57,63986	1,24512
57,65003	1,24512
57,66019	1,24023
57,67035	1,24023
57,68051	1,24512
57,69067	1,24512
57,70084	1,24512
57,71100	1,24512
57,72116	1,24512
57,73132	1,25000
57,74148	1,25000
57,75165	1,25000
57,76181	1,25000
57,77197	1,24512
57,78213	1,24512
57,79230	1,24512
57,80246	1,24512
57,81262	1,24512
57,82278	1,25000
57,83294	1,24512
57,84311	1,24512
57,85327	1,25000
57,86343	1,24023
57,87359	1,24512
57,88376	1,24512
57,89392	1,24512
57,90408	1,24512
57,91424	1,24512
57,92440	1,24512
57,93457	1,24512
57,94473	1,24512
57,95489	1,24512
57,96505	1,24512
57,97521	1,25977
57,98538	1,24512
57,99554	1,25000
58,00570	1,24512
58,01586	1,24512
58,02603	1,25000
58,03619	1,24512
58,04635	1,25000
58,05651	1,24512
58,06667	1,24023
58,07684	1,25000
58,08700	1,24023
58,09716	1,24512
58,10732	1,25000
58,11749	1,25488
58,12765	1,24512
58,13781	1,25000
58,14797	1,24512
58,15813	1,24512
58,16830	1,24512
58,17846	1,24512
58,18862	1,24512
58,19878	1,24512
58,20894	1,24512
58,21911	1,24512
58,22927	1,24512
58,23943	1,24512
58,24959	1,24023
58,25976	1,24512
58,26992	1,24023
58,28008	1,24512
58,29024	1,24512
58,30040	1,24023
58,31057	1,24512
58,32073	1,24512
58,33089	1,24512
58,34105	1,24512
58,35122	1,24512
58,36138	1,24512
58,37154	1,24512
58,38170	1,25000
58,39186	1,24512
58,40203	1,24512
58,41219	1,24512
58,42235	1,24512
58,43251	1,24512
58,44267	1,24512
58,45284	1,24512
58,46300	1,25000
58,47316	1,25000
58,48332	1,24023
58,49349	1,24023
58,50365	1,24023
58,51381	1,24512
58,52397	1,24512
58,53413	1,25000
58,54430	1,25000
58,55446	1,25000
58,56462	1,24512
58,57478	1,24512
58,58495	1,24512
58,59511	1,25000
58,60527	1,25488
58,61543	1,25000
58,62559	1,25000
58,63576	1,24512
58,64592	1,25000
58,65608	1,24023
58,66624	1,24023
58,67640	1,24512
58,68657	1,24512
58,69673	1,24512
58,70689	1,24512
58,71705	1,24023
58,72722	1,25000
58,73738	1,24512
58,74754	1,25000
58,75770	1,24512
58,76786	1,24023
58,77803	1,25488
58,78819	1,25000
58,79835	1,24512
58,80851	1,25000
58,81868	1,25000
58,82884	1,25000
58,83900	1,24512
58,84916	1,24512
58,85932	1,24512
58,86949	1,24512
58,87965	1,24512
58,88981	1,25977
58,89997	1,25000
58,91013	1,25000
58,92030	1,24512
58,93046	1,24512
58,94062	1,25000
58,95078	1,24512
58,96095	1,25000
58,97111	1,24512
58,98127	1,24512
58,99143	1,24512
59,00159	1,24023
59,01176	1,25000
59,02192	1,25488
59,03208	1,25000
59,04224	1,25000
59,05241	1,24512
59,06257	1,25977
59,07273	1,24512
59,08289	1,24512
59,09305	1,24512
59,10322	1,24512
59,11338	1,24512
59,12354	1,25000
59,13370	1,25000
59,14387	1,24512
59,15403	1,24023
59,16419	1,24512
59,17435	1,24512
59,18451	1,24023
59,19468	1,25000
59,20484	1,24512
59,21500	1,25000
59,22516	1,24512
59,23532	1,24512
59,24549	1,25488
59,25565	1,25000
59,26581	1,24512
59,27597	1,25000
59,28614	1,24512
59,29630	1,24512
59,30646	1,25000
59,31662	1,24512
59,32678	1,25000
59,33695	1,24512
59,34711	1,24512
59,35727	1,24512
59,36743	1,25000
59,37760	1,24512
59,38776	1,24512
59,39792	1,25000
59,40808	1,24512
59,41824	1,24512
59,42841	1,24512
59,43857	1,24023
59,44873	1,25000
59,45889	1,24512
59,46905	1,24512
59,47922	1,24512
59,48938	1,24512
59,49954	1,25000
59,50970	1,25000
59,51987	1,24023
59,53003	1,24512
59,54019	1,24512
59,55035	1,25000
59,56051	1,25000
59,57068	1,25000
59,58084	1,24512
59,59100	1,25000
59,60116	1,24512
59,61133	1,25000
59,62149	1,25000
59,63165	1,24512
59,64181	1,24512
59,65197	1,24023
59,66214	1,24512
59,67230	1,24512
59,68246	1,25000
59,69262	1,25000
59,70278	1,24023
59,71295	1,24023
59,72311	1,24023
59,73327	1,24023
59,74343	1,24512
59,75360	1,24512
59,76376	1,24512
59,77392	1,24512
59,78408	1,25488
59,79424	1,24512
59,80441	1,24023
59,81457	1,25000
59,82473	1,24512
59,83489	1,24023
59,84506	1,24512
59,85522	1,24023
59,86538	1,24512
59,87554	1,24512
59,88570	1,25000
59,89587	1,25488
59,90603	1,25000
59,91619	1,24512
59,92635	1,25000
59,93651	1,25000
59,94668	1,24512
59,95684	1,25000
59,96700	1,25488
59,97716	1,25000
59,98733	1,24023
59,99749	1,25000
60,00765	1,24512
60,01781	1,23535
60,02797	1,25000
60,03814	1,24023
60,04830	1,24512
60,05846	1,25000
60,06862	1,24512
60,07879	1,25000
60,08895	1,24023
60,09911	1,25000
60,10927	1,25000
60,11943	1,24512
60,12960	1,24512
60,13976	1,24512
60,14992	1,24512
60,16008	1,24512
60,17024	1,25000
60,18041	1,25000
60,19057	1,24512
60,20073	1,24023
60,21089	1,25000
60,22106	1,24512
60,23122	1,24512
60,24138	1,25488
60,25154	1,24512
60,26170	1,25000
60,27187	1,24512
60,28203	1,24512
60,29219	1,25000
60,30235	1,24512
60,31252	1,25000
60,32268	1,24512
60,33284	1,25000
60,34300	1,24512
60,35316	1,24512
60,36333	1,24512
60,37349	1,24512
60,38365	1,24023
60,39381	1,25000
60,40397	1,24512
60,41414	1,24512
60,42430	1,24512
60,43446	1,24512
60,44462	1,24512
60,45479	1,25000
60,46495	1,24512
60,47511	1,25000
60,48527	1,24512
60,49543	1,25000
60,50560	1,24512
60,51576	1,24512
60,52592	1,24023
60,53608	1,24512
60,54625	1,25000
60,55641	1,24023
60,56657	1,24512
60,57673	1,24512
60,58689	1,24512
60,59706	1,24512
60,60722	1,24512
60,61738	1,24512
60,62754	1,24512
60,63770	1,24512
60,64787	1,24512
60,65803	1,24512
60,66819	1,24023
60,67835	1,24512
60,68852	1,24512
60,69868	1,25000
60,70884	1,24512
60,71900	1,24512
60,72916	1,24512
60,73933	1,24512
60,74949	1,24512
60,75965	1,25000
60,76981	1,24512
60,77998	1,24512
60,79014	1,25000
60,80030	1,24512
60,81046	1,25000
60,82062	1,24512
60,83079	1,25000
60,84095	1,24512
60,85111	1,24512
60,86127	1,25000
60,87143	1,24512
60,88160	1,25000
60,89176	1,25000
60,90192	1,24512
60,91208	1,24512
60,92225	1,25000
60,93241	1,24512
60,94257	1,25000
60,95273	1,24023
60,96289	1,24512
60,97306	1,24512
60,98322	1,25000
60,99338	1,24512
61,00354	1,24512
61,01371	1,24512
61,02387	1,24512
61,03403	1,24512
61,04419	1,25000
61,05435	1,24512
61,06452	1,24512
61,07468	1,25000
61,08484	1,25000
61,09500	1,25000
61,10517	1,25000
61,11533	1,24512
61,12549	1,25000
61,13565	1,24023
61,14581	1,24512
61,15598	1,24512
61,16614	1,24512
61,17630	1,24023
61,18646	1,24023
61,19662	1,24512
61,20679	1,24512
61,21695	1,25000
61,22711	1,24512
61,23727	1,24512
61,24744	1,24512
61,25760	1,25000
61,26776	1,24512
61,27792	1,25000
61,28808	1,24512
61,29825	1,24023
61,30841	1,24512
61,31857	1,25488
61,32873	1,24512
61,33890	1,24023
61,34906	1,24023
61,35922	1,25000
61,36938	1,24512
61,37954	1,24512
61,38971	1,25000
61,39987	1,24023
61,41003	1,25000
61,42019	1,25000
61,43035	1,24512
61,44052	1,25000
61,45068	1,24512
61,46084	1,24512
61,47100	1,25488
61,48117	1,24512
61,49133	1,24512
61,50149	1,24023
61,51165	1,24512
61,52181	1,24512
61,53198	1,24512
61,54214	1,24512
61,55230	1,23535
61,56246	1,25000
61,57263	1,24512
61,58279	1,23535
61,59295	1,24512
61,60311	1,24512
61,61327	1,25000
61,62344	1,24512
61,63360	1,25000
61,64376	1,25000
61,65392	1,25000
61,66408	1,25000
61,67425	1,25000
61,68441	1,24512
61,69457	1,25000
61,70473	1,24512
61,71490	1,24512
61,72506	1,25000
61,73522	1,24023
61,74538	1,25000
61,75554	1,24512
61,76571	1,24512
61,77587	1,24512
61,78603	1,25000
61,79619	1,24512
61,80636	1,24512
61,81652	1,25488
61,82668	1,25000
61,83684	1,25488
61,84700	1,24512
61,85717	1,24512
61,86733	1,24512
61,87749	1,24512
61,88765	1,25000
61,89781	1,25000
61,90798	1,25488
61,91814	1,24512
61,92830	1,24512
61,93846	1,25000
61,94863	1,24512
61,95879	1,24512
61,96895	1,25000
61,97911	1,24512
61,98927	1,25488
61,99944	1,24512
62,00960	1,24023
62,01976	1,24512
62,02992	1,24512
62,04009	1,24512
62,05025	1,24512
62,06041	1,25488
62,07057	1,24512
62,08073	1,24512
62,09090	1,24512
62,10106	1,24512
62,11122	1,25000
62,12138	1,24512
62,13154	1,25000
62,14171	1,25000
62,15187	1,24512
62,16203	1,25000
62,17219	1,24512
62,18236	1,24512
62,19252	1,24512
62,20268	1,24512
62,21284	1,24512
62,22300	1,24512
62,23317	1,25000
62,24333	1,24512
62,25349	1,24512
62,26365	1,25000
62,27382	1,24512
62,28398	1,24512
62,29414	1,25000
62,30430	1,24512
62,31446	1,25488
62,32463	1,24512
62,33479	1,25488
62,34495	1,24512
62,35511	1,25000
62,36527	1,25000
62,37544	1,24512
62,38560	1,24023
62,39576	1,24512
62,40592	1,24512
62,41609	1,24512
62,42625	1,25000
62,43641	1,24512
62,44657	1,25000
62,45673	1,24512
62,46690	1,24512
62,47706	1,24512
62,48722	1,24512
62,49738	1,25488
62,50755	1,24512
62,51771	1,24512
62,52787	1,25488
62,53803	1,24023
62,54819	1,24512
62,55836	1,24512
62,56852	1,24512
62,57868	1,25000
62,58884	1,25000
62,59900	1,24023
62,60917	1,25488
62,61933	1,24023
62,62949	1,25000
62,63965	1,25000
62,64982	1,24512
62,65998	1,25000
62,67014	1,25488
62,68030	1,25000
62,69046	1,25488
62,70063	1,24512
62,71079	1,25488
62,72095	1,24023
62,73111	1,25000
62,74128	1,24512
62,75144	1,24512
62,76160	1,24512
62,77176	1,24512
62,78192	1,24512
62,79209	1,25000
62,80225	1,24512
62,81241	1,25000
62,82257	1,25000
62,83273	1,24512
62,84290	1,25000
62,85306	1,24512
62,86322	1,25000
62,87338	1,25000
62,88355	1,24512
62,89371	1,25000
62,90387	1,24512
62,91403	1,24512
62,92419	1,25000
62,93436	1,24512
62,94452	1,25000
62,95468	1,25000
62,96484	1,24512
62,97501	1,25000
62,98517	1,24512
62,99533	1,24512
63,00549	1,24512
63,01565	1,25000
63,02582	1,25000
63,03598	1,24512
63,04614	1,24023
63,05630	1,24512
63,06647	1,25000
63,07663	1,24512
63,08679	1,24512
63,09695	1,24512
63,10711	1,25488
63,11728	1,24512
63,12744	1,24512
63,13760	1,25000
63,14776	1,24512
63,15792	1,25000
63,16809	1,24512
63,17825	1,25000
63,18841	1,24512
63,19857	1,25488
63,20874	1,25000
63,21890	1,25000
63,22906	1,24512
63,23922	1,25000
63,24938	1,24512
63,25955	1,24512
63,26971	1,24512
63,27987	1,24512
63,29003	1,24512
63,30020	1,24512
63,31036	1,25000
63,32052	1,25000
63,33068	1,25000
63,34084	1,25000
63,35101	1,24512
63,36117	1,25000
63,37133	1,25000
63,38149	1,24512
63,39165	1,24512
63,40182	1,24512
63,41198	1,24512
63,42214	1,25488
63,43230	1,25000
63,44247	1,25000
63,45263	1,24512
63,46279	1,24512
63,47295	1,25000
63,48311	1,25488
63,49328	1,25000
63,50344	1,24512
63,51360	1,25000
63,52376	1,24512
63,53393	1,25000
63,54409	1,24512
63,55425	1,25000
63,56441	1,24512
63,57457	1,25000
63,58474	1,24512
63,59490	1,24512
63,60506	1,25000
63,61522	1,25000
63,62538	1,25000
63,63555	1,25000
63,64571	1,24512
63,65587	1,25488
63,66603	1,24512
63,67620	1,24512
63,68636	1,24512
63,69652	1,24512
63,70668	1,25000
63,71684	1,25000
63,72701	1,24512
63,73717	1,25488
63,74733	1,24512
63,75749	1,24512
63,76766	1,25000
63,77782	1,24512
63,78798	1,24512
63,79814	1,24023
63,80830	1,25000
63,81847	1,24023
63,82863	1,25000
63,83879	1,24023
63,84895	1,24512
63,85911	1,24512
63,86928	1,24512
63,87944	1,24512
63,88960	1,25000
63,89976	1,24512
63,90993	1,25000
63,92009	1,24512
63,93025	1,25000
63,94041	1,25000
63,95057	1,25000
63,96074	1,25000
63,97090	1,25000
63,98106	1,25000
63,99122	1,25977
64,00139	1,24512
64,01155	1,24512
64,02171	1,24512
64,03187	1,24512
64,04203	1,25000
64,05220	1,24512
64,06236	1,24512
64,07252	1,25000
64,08268	1,25000
64,09284	1,24512
64,10301	1,24512
64,11317	1,24512
64,12333	1,25488
64,13349	1,24512
64,14366	1,24512
64,15382	1,25000
64,16398	1,24512
64,17414	1,24512
64,18430	1,24512
64,19447	1,25000
64,20463	1,25000
64,21479	1,24512
64,22495	1,25000
64,23512	1,24512
64,24528	1,25000
64,25544	1,25000
64,26560	1,25000
64,27576	1,25000
64,28593	1,24512
64,29609	1,24512
64,30625	1,24512
64,31641	1,24512
64,32657	1,25000
64,33674	1,24512
64,34690	1,24512
64,35706	1,24512
64,36722	1,25488
64,37739	1,25000
64,38755	1,25000
64,39771	1,25000
64,40787	1,24512
64,41803	1,24023
64,42820	1,25000
64,43836	1,25488
64,44852	1,24512
64,45868	1,24512
64,46885	1,25000
64,47901	1,24512
64,48917	1,24512
64,49933	1,24512
64,50949	1,24512
64,51966	1,24512
64,52982	1,25000
64,53998	1,24512
64,55014	1,25000
64,56030	1,25000
64,57047	1,24512
64,58063	1,24512
64,59079	1,25488
64,60095	1,24023
64,61112	1,25977
64,62128	1,24512
64,63144	1,24023
64,64160	1,24512
64,65176	1,25000
64,66193	1,24512
64,67209	1,25000
64,68225	1,24512
64,69241	1,25488
64,70258	1,24512
64,71274	1,24023
64,72290	1,24512
64,73306	1,24512
64,74322	1,25000
64,75339	1,25000
64,76355	1,24512
64,77371	1,25000
64,78387	1,24512
64,79403	1,24512
64,80420	1,25000
64,81436	1,25000
64,82452	1,25000
64,83468	1,24512
64,84485	1,24512
64,85501	1,24512
64,86517	1,25000
64,87533	1,25000
64,88549	1,25000
64,89566	1,24512
64,90582	1,24512
64,91598	1,25000
64,92614	1,24512
64,93631	1,25000
64,94647	1,25000
64,95663	1,25000
64,96679	1,24512
64,97695	1,25000
64,98712	1,24512
64,99728	1,24512
65,00744	1,25000
65,01760	1,24512
65,02777	1,25000
65,03793	1,25977
65,04809	1,25000
65,05825	1,25000
65,06841	1,25000
65,07858	1,24512
65,08874	1,25000
65,09890	1,24512
65,10906	1,24023
65,11922	1,25000
65,12939	1,24023
65,13955	1,25000
65,14971	1,25000
65,15987	1,25000
65,17004	1,24512
65,18020	1,25000
65,19036	1,25488
65,20052	1,25000
65,21068	1,24512
65,22085	1,25000
65,23101	1,24512
65,24117	1,25000
65,25133	1,24512
65,26150	1,25000
65,27166	1,24512
65,28182	1,25000
65,29198	1,24512
65,30214	1,24512
65,31231	1,24512
65,32247	1,25000
65,33263	1,24512
65,34279	1,25000
65,35295	1,25000
65,36312	1,25000
65,37328	1,25488
65,38344	1,24023
65,39360	1,25488
65,40377	1,25000
65,41393	1,25000
65,42409	1,25488
65,43425	1,24023
65,44441	1,25000
65,45458	1,25000
65,46474	1,24512
65,47490	1,24512
65,48506	1,24512
65,49523	1,25000
65,50539	1,25000
65,51555	1,25000
65,52571	1,25000
65,53587	1,24512
65,54604	1,24023
65,55620	1,25488
65,56636	1,24023
65,57652	1,25000
65,58668	1,24512
65,59685	1,24512
65,60701	1,24512
65,61717	1,25000
65,62733	1,25000
65,63750	1,24512
65,64766	1,24512
65,65782	1,25488
65,66798	1,24512
65,67814	1,24512
65,68831	1,24512
65,69847	1,24512
65,70863	1,24512
65,71879	1,25000
65,72896	1,24512
65,73912	1,25000
65,74928	1,24512
65,75944	1,24512
65,76960	1,25000
65,77977	1,24512
65,78993	1,24512
65,80009	1,24512
65,81025	1,24512
65,82041	1,25488
65,83058	1,24512
65,84074	1,24512
65,85090	1,24023
65,86106	1,24512
65,87123	1,25000
65,88139	1,24512
65,89155	1,25000
65,90171	1,24512
65,91187	1,25000
65,92204	1,24512
65,93220	1,24512
65,94236	1,25000
65,95252	1,24512
65,96269	1,24512
65,97285	1,25000
65,98301	1,24512
65,99317	1,24512
66,00333	1,24512
66,01350	1,24512
66,02366	1,25000
66,03382	1,24512
66,04398	1,25977
66,05414	1,24512
66,06431	1,24512
66,07447	1,25000
66,08463	1,25000
66,09479	1,25000
66,10496	1,24512
66,11512	1,24512
66,12528	1,24512
66,13544	1,25488
66,14560	1,24512
66,15577	1,24512
66,16593	1,25000
66,17609	1,24512
66,18625	1,24512
66,19642	1,24512
66,20658	1,24512
66,21674	1,25000
66,22690	1,24512
66,23706	1,25000
66,24723	1,24512
66,25739	1,24512
66,26755	1,25000
66,27771	1,24512
66,28787	1,24512
66,29804	1,24512
66,30820	1,24512
66,31836	1,25000
66,32852	1,25000
66,33869	1,25000
66,34885	1,24512
66,35901	1,25000
66,36917	1,24512
66,37933	1,25000
66,38950	1,25000
66,39966	1,24512
66,40982	1,25000
66,41998	1,25488
66,43015	1,25000
66,44031	1,25000
66,45047	1,24023
66,46063	1,24512
66,47079	1,24512
66,48096	1,24512
66,49112	1,25000
66,50128	1,24512
66,51144	1,25000
66,52160	1,24512
66,53177	1,24023
66,54193	1,24512
66,55209	1,24512
66,56225	1,24023
66,57242	1,24512
66,58258	1,24512
66,59274	1,25000
66,60290	1,24512
66,61306	1,24512
66,62323	1,24512
66,63339	1,25488
66,64355	1,25000
66,65371	1,25000
66,66388	1,25000
66,67404	1,25000
66,68420	1,24512
66,69436	1,25000
66,70452	1,25000
66,71469	1,24023
66,72485	1,24023
66,73501	1,24512
66,74517	1,24512
66,75533	1,24512
66,76550	1,24512
66,77566	1,25000
66,78582	1,24512
66,79598	1,24512
66,80615	1,25000
66,81631	1,24023
66,82647	1,25000
66,83663	1,24512
66,84679	1,25488
66,85696	1,24512
66,86712	1,24512
66,87728	1,25488
66,88744	1,25488
66,89761	1,24023
66,90777	1,25000
66,91793	1,24512
66,92809	1,25977
66,93825	1,24512
66,94842	1,24512
66,95858	1,24512
66,96874	1,24512
66,97890	1,24512
66,98906	1,24512
66,99923	1,24512
67,00939	1,24023
67,01955	1,25000
67,02971	1,25000
67,03988	1,25000
67,05004	1,25000
67,06020	1,25000
67,07036	1,24512
67,08052	1,24512
67,09069	1,25000
67,10085	1,24512
67,11101	1,24512
67,12117	1,24512
67,13134	1,24512
67,14150	1,25000
67,15166	1,24023
67,16182	1,24512
67,17198	1,25000
67,18215	1,24512
67,19231	1,25000
67,20247	1,25000
67,21263	1,24512
67,22280	1,25000
67,23296	1,24512
67,24312	1,25000
67,25328	1,24023
67,26344	1,24512
67,27361	1,24512
67,28377	1,24512
67,29393	1,24023
67,30409	1,25000
67,31425	1,24512
67,32442	1,24512
67,33458	1,24512
67,34474	1,24512
67,35490	1,25000
67,36507	1,25000
67,37523	1,24512
67,38539	1,25000
67,39555	1,24512
67,40571	1,24512
67,41588	1,25000
67,42604	1,24512
67,43620	1,24512
67,44636	1,24512
67,45653	1,25000
67,46669	1,24512
67,47685	1,24512
67,48701	1,25000
67,49717	1,25000
67,50734	1,24512
67,51750	1,24512
67,52766	1,24512
67,53782	1,24512
67,54798	1,24512
67,55815	1,25000
67,56831	1,24512
67,57847	1,24512
67,58863	1,24512
67,59880	1,24512
67,60896	1,25000
67,61912	1,24512
67,62928	1,25000
67,63944	1,24512
67,64961	1,25000
67,65977	1,24023
67,66993	1,25000
67,68009	1,24512
67,69026	1,25488
67,70042	1,24512
67,71058	1,25000
67,72074	1,24512
67,73090	1,25000
67,74107	1,24512
67,75123	1,25000
67,76139	1,24512
67,77155	1,24512
67,78171	1,24512
67,79188	1,25000
67,80204	1,24512
67,81220	1,24512
67,82236	1,25000
67,83253	1,24512
67,84269	1,24512
67,85285	1,24512
67,86301	1,24512
67,87317	1,25000
67,88334	1,24512
67,89350	1,24512
67,90366	1,25000
67,91382	1,25000
67,92399	1,25000
67,93415	1,25000
67,94431	1,24512
67,95447	1,24512
67,96463	1,25000
67,97480	1,24512
67,98496	1,24512
67,99512	1,24512
68,00528	1,25000
68,01544	1,24512
68,02561	1,24512
68,03577	1,24512
68,04593	1,24512
68,05609	1,24512
68,06626	1,24512
68,07642	1,24512
68,08658	1,24512
68,09674	1,24512
68,10690	1,25000
68,11707	1,25000
68,12723	1,25977
68,13739	1,24023
68,14755	1,25977
68,15772	1,24512
68,16788	1,25000
68,17804	1,25000
68,18820	1,25488
68,19836	1,24512
68,20853	1,24512
68,21869	1,25000
68,22885	1,24512
68,23901	1,24512
68,24917	1,24512
68,25934	1,24512
68,26950	1,24512
68,27966	1,24512
68,28982	1,24512
68,29999	1,24512
68,31015	1,25000
68,32031	1,25000
68,33047	1,24023
68,34063	1,25000
68,35080	1,25488
68,36096	1,25000
68,37112	1,25000
68,38128	1,24512
68,39145	1,25000
68,40161	1,25000
68,41177	1,24512
68,42193	1,25000
68,43209	1,24023
68,44226	1,25000
68,45242	1,24512
68,46258	1,24512
68,47274	1,25000
68,48290	1,24512
68,49307	1,24512
68,50323	1,24512
68,51339	1,24512
68,52355	1,24512
68,53372	1,24512
68,54388	1,24512
68,55404	1,25000
68,56420	1,24512
68,57436	1,25000
68,58453	1,24512
68,59469	1,25000
68,60485	1,25000
68,61501	1,25000
68,62518	1,24512
68,63534	1,24512
68,64550	1,24512
68,65566	1,25000
68,66582	1,24512
68,67599	1,24512
68,68615	1,24023
68,69631	1,24512
68,70647	1,24512
68,71663	1,24512
68,72680	1,24512
68,73696	1,24512
68,74712	1,24512
68,75728	1,25000
68,76745	1,24512
68,77761	1,24512
68,78777	1,25000
68,79793	1,24512
68,80809	1,25000
68,81826	1,24512
68,82842	1,25000
68,83858	1,24512
68,84874	1,24512
68,85891	1,24512
68,86907	1,24512
68,87923	1,23535
68,88939	1,24512
68,89955	1,24023
68,90972	1,25488
68,91988	1,24512
68,93004	1,25488
68,94020	1,24512
68,95036	1,24512
68,96053	1,24512
68,97069	1,25000
68,98085	1,24512
68,99101	1,24512
69,00118	1,24512
69,01134	1,24512
69,02150	1,25000
69,03166	1,24512
69,04182	1,24512
69,05199	1,24512
69,06215	1,24512
69,07231	1,25000
69,08247	1,24512
69,09264	1,24512
69,10280	1,25000
69,11296	1,24023
69,12312	1,25000
69,13328	1,24512
69,14345	1,24512
69,15361	1,25000
69,16377	1,25488
69,17393	1,24512
69,18410	1,24512
69,19426	1,25000
69,20442	1,24512
69,21458	1,24512
69,22474	1,24512
69,23491	1,24512
69,24507	1,25000
69,25523	1,25000
69,26539	1,25000
69,27555	1,25000
69,28572	1,25488
69,29588	1,24512
69,30604	1,25000
69,31620	1,25000
69,32637	1,25000
69,33653	1,24512
69,34669	1,24512
69,35685	1,25000
69,36701	1,25000
69,37718	1,25488
69,38734	1,24512
69,39750	1,24512
69,40766	1,24512
69,41783	1,25000
69,42799	1,24512
69,43815	1,25000
69,44831	1,24023
69,45847	1,25000
69,46864	1,24512
69,47880	1,24512
69,48896	1,25000
69,49912	1,24512
69,50928	1,25000
69,51945	1,24512
69,52961	1,24023
69,53977	1,25488
69,54993	1,24512
69,56010	1,24023
69,57026	1,25000
69,58042	1,24023
69,59058	1,25000
69,60074	1,24512
69,61091	1,24512
69,62107	1,24512
69,63123	1,25000
69,64139	1,24512
69,65156	1,25000
69,66172	1,24512
69,67188	1,25000
69,68204	1,24512
69,69220	1,25000
69,70237	1,24023
69,71253	1,24512
69,72269	1,24512
69,73285	1,24512
69,74301	1,24512
69,75318	1,24512
69,76334	1,24512
69,77350	1,25000
69,78366	1,24023
69,79383	1,25000
69,80399	1,24512
69,81415	1,25000
69,82431	1,24512
69,83447	1,24512
69,84464	1,25000
69,85480	1,25000
69,86496	1,24512
69,87512	1,25000
69,88529	1,24512
69,89545	1,24512
69,90561	1,24512
69,91577	1,24512
69,92593	1,24512
69,93610	1,24512
69,94626	1,24512
69,95642	1,24512
69,96658	1,25000
69,97674	1,24023
69,98691	1,25000
69,99707	1,24512
70,00723	1,25000
70,01739	1,25000
70,02756	1,25488
70,03772	1,25488
70,04788	1,25000
70,05804	1,24512
70,06820	1,24512
70,07837	1,24512
70,08853	1,25000
70,09869	1,24512
70,10885	1,25000
70,11902	1,25000
70,12918	1,24023
70,13934	1,25000
70,14950	1,25000
70,15966	1,24512
70,16983	1,25000
70,17999	1,25000
70,19015	1,25000
70,20031	1,24512
70,21047	1,24512
70,22064	1,25000
70,23080	1,24512
70,24096	1,25000
70,25112	1,24512
70,26129	1,24512
70,27145	1,24512
70,28161	1,24023
70,29177	1,25000
70,30193	1,24512
70,31210	1,24512
70,32226	1,24512
70,33242	1,24512
70,34258	1,24023
70,35275	1,24512
70,36291	1,25000
70,37307	1,24512
70,38323	1,25000
70,39339	1,24512
70,40356	1,25000
70,41372	1,24512
70,42388	1,24512
70,43404	1,24512
70,44420	1,24512
70,45437	1,24512
70,46453	1,25000
70,47469	1,25000
70,48485	1,25000
70,49502	1,24512
70,50518	1,25000
70,51534	1,24512
70,52550	1,25000
70,53566	1,24512
70,54583	1,24023
70,55599	1,25977
70,56615	1,24023
70,57631	1,25000
70,58648	1,25000
70,59664	1,24512
70,60680	1,25000
70,61696	1,24512
70,62712	1,24512
70,63729	1,25000
70,64745	1,24512
70,65761	1,24512
70,66777	1,25000
70,67793	1,24512
70,68810	1,25000
70,69826	1,24023
70,70842	1,25488
70,71858	1,25000
70,72875	1,25000
70,73891	1,25488
70,74907	1,25000
70,75923	1,25000
70,76939	1,24512
70,77956	1,25488
70,78972	1,24512
70,79988	1,24512
70,81004	1,24512
70,82021	1,24512
70,83037	1,24512
70,84053	1,25000
70,85069	1,25977
70,86085	1,24512
70,87102	1,25977
70,88118	1,24512
70,89134	1,24512
70,90150	1,24512
70,91166	1,25000
70,92183	1,25000
70,93199	1,24512
70,94215	1,25000
70,95231	1,25000
70,96248	1,24512
70,97264	1,25000
70,98280	1,24512
70,99296	1,25000
71,00312	1,24512
71,01329	1,25000
71,02345	1,25000
71,03361	1,24512
71,04377	1,24512
71,05394	1,25000
71,06410	1,24512
71,07426	1,25000
71,08442	1,24512
71,09458	1,24512
71,10475	1,24512
71,11491	1,25000
71,12507	1,24512
71,13523	1,24512
71,14540	1,24512
71,15556	1,24512
71,16572	1,25000
71,17588	1,24512
71,18604	1,25000
71,19621	1,24512
71,20637	1,25977
71,21653	1,24512
71,22669	1,25000
71,23685	1,25488
71,24702	1,23535
71,25718	1,25000
71,26734	1,25000
71,27750	1,24023
71,28767	1,24512
71,29783	1,24512
71,30799	1,25000
71,31815	1,24512
71,32831	1,24512
71,33848	1,25977
71,34864	1,23535
71,35880	1,25000
71,36896	1,24512
71,37913	1,24512
71,38929	1,25977
71,39945	1,24023
71,40961	1,24512
71,41977	1,25000
71,42994	1,24023
71,44010	1,25000
71,45026	1,24512
71,46042	1,24512
71,47058	1,24512
71,48075	1,24512
71,49091	1,24512
71,50107	1,25000
71,51123	1,24512
71,52140	1,25000
71,53156	1,25000
71,54172	1,25000
71,55188	1,25000
71,56204	1,24512
71,57221	1,24512
71,58237	1,25000
71,59253	1,24512
71,60269	1,25000
71,61286	1,25000
71,62302	1,25488
71,63318	1,25000
71,64334	1,24512
71,65350	1,25000
71,66367	1,25488
71,67383	1,25000
71,68399	1,24512
71,69415	1,24023
71,70431	1,25000
71,71448	1,24512
71,72464	1,24512
71,73480	1,25000
71,74496	1,24512
71,75513	1,25000
71,76529	1,24512
71,77545	1,25000
71,78561	1,25000
71,79577	1,24512
71,80594	1,25000
71,81610	1,25000
71,82626	1,24512
71,83642	1,25000
71,84659	1,24023
71,85675	1,25000
71,86691	1,24512
71,87707	1,24023
71,88723	1,25000
71,89740	1,24512
71,90756	1,25000
71,91772	1,24512
71,92788	1,24512
71,93804	1,25000
71,94821	1,24512
71,95837	1,25977
71,96853	1,25000
71,97869	1,24512
71,98886	1,25488
71,99902	1,24512
72,00918	1,25000
72,01934	1,24512
72,02950	1,24512
72,03967	1,24512
72,04983	1,24512
72,05999	1,24512
72,07015	1,25000
72,08032	1,24512
72,09048	1,24512
72,10064	1,24512
72,11080	1,24512
72,12096	1,24512
72,13113	1,24512
72,14129	1,25000
72,15145	1,25488
72,16161	1,24512
72,17177	1,25000
72,18194	1,24512
72,19210	1,24512
72,20226	1,25000
72,21242	1,24512
72,22259	1,25000
72,23275	1,25000
72,24291	1,25000
72,25307	1,24512
72,26323	1,23535
72,27340	1,24512
72,28356	1,24512
72,29372	1,25000
72,30388	1,24512
72,31405	1,24512
72,32421	1,25000
72,33437	1,25000
72,34453	1,24512
72,35469	1,25000
72,36486	1,24512
72,37502	1,25000
72,38518	1,24512
72,39534	1,24512
72,40550	1,24512
72,41567	1,24512
72,42583	1,24512
72,43599	1,25000
72,44615	1,24023
72,45632	1,25000
72,46648	1,25000
72,47664	1,24512
72,48680	1,25000
72,49696	1,24512
72,50713	1,24512
72,51729	1,25000
72,52745	1,24512
72,53761	1,25488
72,54778	1,24512
72,55794	1,25488
72,56810	1,24512
72,57826	1,25000
72,58842	1,25000
72,59859	1,25488
72,60875	1,24023
72,61891	1,25000
72,62907	1,24512
72,63923	1,24512
72,64940	1,25000
72,65956	1,25000
72,66972	1,25000
72,67988	1,25000
72,69005	1,25000
72,70021	1,25488
72,71037	1,24512
72,72053	1,25000
72,73069	1,24023
72,74086	1,25000
72,75102	1,24512
72,76118	1,25000
72,77134	1,25000
72,78151	1,24512
72,79167	1,25000
72,80183	1,24512
72,81199	1,23535
72,82215	1,24512
72,83232	1,24512
72,84248	1,24512
72,85264	1,25000
72,86280	1,24512
72,87296	1,25000
72,88313	1,25000
72,89329	1,24512
72,90345	1,25000
72,91361	1,24512
72,92378	1,25000
72,93394	1,25000
72,94410	1,24512
72,95426	1,25488
72,96442	1,24023
72,97459	1,24512
72,98475	1,25000
72,99491	1,25000
73,00507	1,24512
73,01524	1,25000
73,02540	1,25000
73,03556	1,25000
73,04572	1,24512
73,05588	1,25000
73,06605	1,24512
73,07621	1,24512
73,08637	1,25000
73,09653	1,24512
73,10670	1,24512
73,11686	1,24512
73,12702	1,24512
73,13718	1,25000
73,14734	1,24512
73,15751	1,24512
73,16767	1,25000
73,17783	1,24512
73,18799	1,25000
73,19815	1,24512
73,20832	1,25000
73,21848	1,25000
73,22864	1,24512
73,23880	1,24512
73,24897	1,24512
73,25913	1,24512
73,26929	1,24512
73,27945	1,25000
73,28961	1,24512
73,29978	1,24512
73,30994	1,24512
73,32010	1,25000
73,33026	1,24512
73,34043	1,24512
73,35059	1,24512
73,36075	1,24512
73,37091	1,25000
73,38107	1,25000
73,39124	1,24512
73,40140	1,25977
73,41156	1,24512
73,42172	1,25000
73,43188	1,24512
73,44205	1,25000
73,45221	1,25000
73,46237	1,25000
73,47253	1,24512
73,48270	1,25000
73,49286	1,24023
73,50302	1,24512
73,51318	1,24512
73,52334	1,25000
73,53351	1,24023
73,54367	1,25488
73,55383	1,25000
73,56399	1,24512
73,57416	1,24512
73,58432	1,25000
73,59448	1,24512
73,60464	1,25000
73,61480	1,24512
73,62497	1,25488
73,63513	1,25000
73,64529	1,24512
73,65545	1,25000
73,66561	1,24512
73,67578	1,24512
73,68594	1,24512
73,69610	1,24512
73,70626	1,24512
73,71643	1,25000
73,72659	1,24023
73,73675	1,25000
73,74691	1,24512
73,75707	1,24512
73,76724	1,24512
73,77740	1,25000
73,78756	1,25000
73,79772	1,25000
73,80789	1,24512
73,81805	1,24512
73,82821	1,24512
73,83837	1,25000
73,84853	1,25000
73,85870	1,24512
73,86886	1,24512
73,87902	1,24023
73,88918	1,25000
73,89934	1,24512
73,90951	1,24023
73,91967	1,25977
73,92983	1,25000
73,93999	1,24512
73,95016	1,25000
73,96032	1,24512
73,97048	1,25000
73,98064	1,24512
73,99080	1,24512
74,00097	1,24512
74,01113	1,24512
74,02129	1,24512
74,03145	1,24512
74,04162	1,24512
74,05178	1,25000
74,06194	1,24512
74,07210	1,24512
74,08226	1,24023
74,09243	1,24512
74,10259	1,24512
74,11275	1,24512
74,12291	1,25000
74,13307	1,24512
74,14324	1,24512
74,15340	1,25000
74,16356	1,25000
74,17372	1,24512
74,18389	1,24512
74,19405	1,24512
74,20421	1,24512
74,21437	1,24512
74,22453	1,24512
74,23470	1,25000
74,24486	1,24512
74,25502	1,24512
74,26518	1,24512
74,27535	1,24512
74,28551	1,25000
74,29567	1,24512
74,30583	1,24512
74,31599	1,24512
74,32616	1,24512
74,33632	1,24512
74,34648	1,24512
74,35664	1,24512
74,36680	1,25000
74,37697	1,24512
74,38713	1,25000
74,39729	1,25000
74,40745	1,25488
74,41762	1,24512
74,42778	1,24512
74,43794	1,24512
74,44810	1,24512
74,45826	1,24512
74,46843	1,25000
74,47859	1,24512
74,48875	1,25000
74,49891	1,24023
74,50908	1,24512
74,51924	1,25488
74,52940	1,24512
74,53956	1,25488
74,54972	1,24512
74,55989	1,25000
74,57005	1,24512
74,58021	1,25000
74,59037	1,24512
74,60053	1,25000
74,61070	1,24512
74,62086	1,24512
74,63102	1,24512
74,64118	1,25000
74,65135	1,24512
74,66151	1,24512
74,67167	1,25000
74,68183	1,25000
74,69199	1,24512
74,70216	1,24512
74,71232	1,24512
74,72248	1,24512
74,73264	1,24512
74,74281	1,24023
74,75297	1,25000
74,76313	1,25000
74,77329	1,24512
74,78345	1,25000
74,79362	1,24512
74,80378	1,25000
74,81394	1,24512
74,82410	1,24512
74,83426	1,25000
74,84443	1,24512
74,85459	1,25000
74,86475	1,24512
74,87491	1,25000
74,88508	1,24512
74,89524	1,24512
74,90540	1,24512
74,91556	1,25000
74,92572	1,24023
74,93589	1,24512
74,94605	1,24512
74,95621	1,24512
74,96637	1,24512
74,97654	1,24512
74,98670	1,25000
74,99686	1,24512
75,00702	1,24512
75,01718	1,25000
75,02735	1,24512
75,03751	1,24512
75,04767	1,24512
75,05783	1,24023
75,06800	1,25000
75,07816	1,24512
75,08832	1,25000
75,09848	1,25000
75,10864	1,24512
75,11881	1,25000
75,12897	1,25000
75,13913	1,25000
75,14929	1,24512
75,15945	1,24512
75,16962	1,25000
75,17978	1,24023
75,18994	1,25000
75,20010	1,24512
75,21027	1,25000
75,22043	1,24512
75,23059	1,24512
75,24075	1,24512
75,25091	1,25000
75,26108	1,24512
75,27124	1,25000
75,28140	1,25000
75,29156	1,25000
75,30173	1,25000
75,31189	1,24512
75,32205	1,24512
75,33221	1,24512
75,34237	1,24512
75,35254	1,24512
75,36270	1,24512
75,37286	1,24512
75,38302	1,24512
75,39318	1,24512
75,40335	1,25000
75,41351	1,24512
75,42367	1,24023
75,43383	1,25000
75,44400	1,24512
75,45416	1,25000
75,46432	1,25000
75,47448	1,24023
75,48464	1,25000
75,49481	1,24512
75,50497	1,25000
75,51513	1,24512
75,52529	1,24512
75,53546	1,24512
75,54562	1,24512
75,55578	1,25000
75,56594	1,24512
75,57610	1,24512
75,58627	1,25000
75,59643	1,24512
75,60659	1,24023
75,61675	1,25000
75,62691	1,24512
75,63708	1,24512
75,64724	1,24512
75,65740	1,25000
75,66756	1,25000
75,67773	1,25000
75,68789	1,25488
75,69805	1,24512
75,70821	1,25000
75,71837	1,25000
75,72854	1,24512
75,73870	1,25000
75,74886	1,24023
75,75902	1,25000
75,76919	1,25000
75,77935	1,24512
75,78951	1,24512
75,79967	1,25000
75,80983	1,24512
75,82000	1,24512
75,83016	1,24512
75,84032	1,24512
75,85048	1,24512
75,86064	1,25000
75,87081	1,24512
75,88097	1,24023
75,89113	1,25000
75,90129	1,25488
75,91146	1,24512
75,92162	1,24512
75,93178	1,24512
75,94194	1,24023
75,95210	1,24512
75,96227	1,24512
75,97243	1,25000
75,98259	1,24512
75,99275	1,25000
76,00292	1,25000
76,01308	1,25000
76,02324	1,24512
76,03340	1,25488
76,04356	1,24512
76,05373	1,24512
76,06389	1,24512
76,07405	1,24512
76,08421	1,25000
76,09437	1,24512
76,10454	1,25000
76,11470	1,24512
76,12486	1,24023
76,13502	1,25000
76,14519	1,24512
76,15535	1,25488
76,16551	1,25000
76,17567	1,24512
76,18583	1,25000
76,19600	1,24023
76,20616	1,25000
76,21632	1,25488
76,22648	1,24512
76,23665	1,24512
76,24681	1,25000
76,25697	1,25000
76,26713	1,25488
76,27729	1,24023
76,28746	1,25000
76,29762	1,24023
76,30778	1,24512
76,31794	1,24512
76,32810	1,24512
76,33827	1,24512
76,34843	1,24512
76,35859	1,24023
76,36875	1,24512
76,37892	1,24512
76,38908	1,25000
76,39924	1,25000
76,40940	1,25000
76,41956	1,24512
76,42973	1,24512
76,43989	1,24512
76,45005	1,24512
76,46021	1,24512
76,47038	1,25000
76,48054	1,24512
76,49070	1,24512
76,50086	1,25000
76,51102	1,24512
76,52119	1,25000
76,53135	1,24512
76,54151	1,25000
76,55167	1,25000
76,56183	1,24512
76,57200	1,25000
76,58216	1,24512
76,59232	1,24512
76,60248	1,25000
76,61265	1,24512
76,62281	1,24512
76,63297	1,24512
76,64313	1,24512
76,65329	1,25000
76,66346	1,24512
76,67362	1,25000
76,68378	1,25000
76,69394	1,24512
76,70411	1,24512
76,71427	1,25000
76,72443	1,25000
76,73459	1,24512
76,74475	1,24512
76,75492	1,24512
76,76508	1,24512
76,77524	1,24512
76,78540	1,24512
76,79556	1,24512
76,80573	1,24512
76,81589	1,25000
76,82605	1,24023
76,83621	1,25000
76,84638	1,24023
76,85654	1,25000
76,86670	1,25488
76,87686	1,24512
76,88702	1,25000
76,89719	1,24512
76,90735	1,24512
76,91751	1,25000
76,92767	1,24512
76,93784	1,25000
76,94800	1,24512
76,95816	1,24512
76,96832	1,25000
76,97848	1,24512
76,98865	1,25000
76,99881	1,25000
77,00897	1,24512
77,01913	1,25000
77,02930	1,24512
77,03946	1,24512
77,04962	1,24512
77,05978	1,24512
77,06994	1,25000
77,08011	1,24512
77,09027	1,24512
77,10043	1,24512
77,11059	1,24512
77,12075	1,24512
77,13092	1,25488
77,14108	1,24512
77,15124	1,24512
77,16140	1,24023
77,17157	1,24512
77,18173	1,25000
77,19189	1,24512
77,20205	1,25000
77,21221	1,24512
77,22238	1,25000
77,23254	1,25000
77,24270	1,24023
77,25286	1,25000
77,26303	1,24512
77,27319	1,24023
77,28335	1,25000
77,29351	1,24512
77,30367	1,25000
77,31384	1,24512
77,32400	1,24512
77,33416	1,24023
77,34432	1,24512
77,35448	1,25000
77,36465	1,24512
77,37481	1,24512
77,38497	1,25000
77,39513	1,24512
77,40530	1,24512
77,41546	1,24512
77,42562	1,24512
77,43578	1,24512
77,44594	1,24512
77,45611	1,24512
77,46627	1,24512
77,47643	1,24512
77,48659	1,24512
77,49676	1,24512
77,50692	1,24512
77,51708	1,24512
77,52724	1,24023
77,53740	1,25000
77,54757	1,24512
77,55773	1,24512
77,56789	1,25000
77,57805	1,24512
77,58821	1,24512
77,59838	1,25000
77,60854	1,24512
77,61870	1,24512
77,62886	1,25488
77,63903	1,25000
77,64919	1,24512
77,65935	1,24512
77,66951	1,25000
77,67967	1,24512
77,68984	1,24512
77,70000	1,25000
77,71016	1,24023
77,72032	1,25000
77,73049	1,24512
77,74065	1,25000
77,75081	1,24512
77,76097	1,24512
77,77113	1,25000
77,78130	1,24512
77,79146	1,24512
77,80162	1,25488
77,81178	1,24512
77,82194	1,24512
77,83211	1,24512
77,84227	1,25000
77,85243	1,25000
77,86259	1,25000
77,87276	1,24512
77,88292	1,25000
77,89308	1,24023
77,90324	1,24512
77,91340	1,24512
77,92357	1,25000
77,93373	1,25488
77,94389	1,24512
77,95405	1,25000
77,96422	1,25000
77,97438	1,25000
77,98454	1,25000
77,99470	1,24512
78,00486	1,24512
78,01503	1,25000
78,02519	1,24023
78,03535	1,25000
78,04551	1,25000
78,05567	1,25000
78,06584	1,24512
78,07600	1,24512
78,08616	1,24512
78,09632	1,25000
78,10649	1,24512
78,11665	1,25000
78,12681	1,24512
78,13697	1,25000
78,14713	1,25000
78,15730	1,24512
78,16746	1,25000
78,17762	1,24512
78,18778	1,25000
78,19795	1,25000
78,20811	1,24512
78,21827	1,25000
78,22843	1,24512
78,23859	1,24512
78,24876	1,24512
78,25892	1,24023
78,26908	1,25488
78,27924	1,24023
78,28940	1,25977
78,29957	1,24512
78,30973	1,24512
78,31989	1,24512
78,33005	1,25000
78,34022	1,24512
78,35038	1,24512
78,36054	1,24023
78,37070	1,25000
78,38086	1,24512
78,39103	1,24512
78,40119	1,25000
78,41135	1,24512
78,42151	1,24512
78,43168	1,25000
78,44184	1,24512
78,45200	1,25000
78,46216	1,24512
78,47232	1,24512
78,48249	1,25000
78,49265	1,24023
78,50281	1,24512
78,51297	1,24512
78,52313	1,24512
78,53330	1,25488
78,54346	1,24023
78,55362	1,24512
78,56378	1,25000
78,57395	1,24512
78,58411	1,25000
78,59427	1,24023
78,60443	1,25488
78,61459	1,24512
78,62476	1,25000
78,63492	1,24512
78,64508	1,24023
78,65524	1,24512
78,66541	1,25488
78,67557	1,25000
78,68573	1,25000
78,69589	1,24512
78,70605	1,25000
78,71622	1,25000
78,72638	1,24512
78,73654	1,24512
78,74670	1,24512
78,75686	1,24512
78,76703	1,25000
78,77719	1,25000
78,78735	1,24512
78,79751	1,25000
78,80768	1,24512
78,81784	1,24512
78,82800	1,25000
78,83816	1,25000
78,84832	1,24512
78,85849	1,24512
78,86865	1,24512
78,87881	1,25000
78,88897	1,25000
78,89914	1,25488
78,90930	1,24512
78,91946	1,25000
78,92962	1,24512
78,93978	1,24512
78,94995	1,24512
78,96011	1,24512
78,97027	1,25000
78,98043	1,24512
78,99059	1,24512
79,00076	1,25000
79,01092	1,24512
79,02108	1,25000
79,03124	1,24512
79,04141	1,24512
79,05157	1,25000
79,06173	1,24512
79,07189	1,24512
79,08205	1,25000
79,09222	1,24512
79,10238	1,24512
79,11254	1,24023
79,12270	1,24023
79,13287	1,24512
79,14303	1,24512
79,15319	1,24512
79,16335	1,25000
79,17351	1,24023
79,18368	1,25000
79,19384	1,25000
79,20400	1,24512
79,21416	1,25000
79,22433	1,24512
79,23449	1,24512
79,24465	1,25488
79,25481	1,25000
79,26497	1,25000
79,27514	1,25000
79,28530	1,25000
79,29546	1,25000
79,30562	1,25000
79,31578	1,24512
79,32595	1,24023
79,33611	1,24512
79,34627	1,24512
79,35643	1,25000
79,36660	1,25000
79,37676	1,24512
79,38692	1,24512
79,39708	1,24512
79,40724	1,24512
79,41741	1,24512
79,42757	1,24512
79,43773	1,24512
79,44789	1,25000
79,45806	1,24023
79,46822	1,24512
79,47838	1,24023
79,48854	1,25000
79,49870	1,25000
79,50887	1,24512
79,51903	1,24512
79,52919	1,25000
79,53935	1,25000
79,54951	1,25488
79,55968	1,25000
79,56984	1,24512
79,58000	1,25000
79,59016	1,24512
79,60033	1,24512
79,61049	1,24023
79,62065	1,25000
79,63081	1,24512
79,64097	1,24512
79,65114	1,24512
79,66130	1,24512
79,67146	1,25488
79,68162	1,24512
79,69179	1,24512
79,70195	1,24512
79,71211	1,24512
79,72227	1,24512
79,73243	1,24023
79,74260	1,25000
79,75276	1,25000
79,76292	1,24512
79,77308	1,24512
79,78324	1,24512
79,79341	1,24512
79,80357	1,25000
79,81373	1,24512
79,82389	1,24512
79,83406	1,25000
79,84422	1,25000
79,85438	1,24512
79,86454	1,24512
79,87470	1,24512
79,88487	1,25000
79,89503	1,25000
79,90519	1,24512
79,91535	1,25000
79,92552	1,24023
79,93568	1,25488
79,94584	1,24023
79,95600	1,24512
79,96616	1,25000
79,97633	1,24512
79,98649	1,25000
79,99665	1,24512
80,00681	1,23535
80,01697	1,24512
80,02714	1,25000
80,03730	1,25000
80,04746	1,24512
80,05762	1,24512
80,06779	1,24512
80,07795	1,25000
80,08811	1,25000
80,09827	1,24512
80,10843	1,24512
80,11860	1,25000
80,12876	1,25000
80,13892	1,25000
80,14908	1,24512
80,15925	1,24512
80,16941	1,25488
80,17957	1,25000
80,18973	1,25488
80,19989	1,25000
80,21006	1,25000
80,22022	1,24512
80,23038	1,24512
80,24054	1,24512
80,25070	1,25000
80,26087	1,24512
80,27103	1,24512
80,28119	1,24512
80,29135	1,25000
80,30152	1,24512
80,31168	1,24512
80,32184	1,24512
80,33200	1,25000
80,34216	1,24512
80,35233	1,25000
80,36249	1,24512
80,37265	1,24512
80,38281	1,25000
80,39298	1,24512
80,40314	1,24512
80,41330	1,24512
80,42346	1,24512
80,43362	1,25000
80,44379	1,24512
80,45395	1,24512
80,46411	1,24512
80,47427	1,24512
80,48443	1,25000
80,49460	1,24023
80,50476	1,25000
80,51492	1,25000
80,52508	1,24512
80,53525	1,25000
80,54541	1,24512
80,55557	1,24512
80,56573	1,25000
80,57589	1,25000
80,58606	1,24512
80,59622	1,25488
80,60638	1,25000
80,61654	1,24512
80,62671	1,25000
80,63687	1,24512
80,64703	1,25000
80,65719	1,25000
80,66735	1,25000
80,67752	1,24512
80,68768	1,24512
80,69784	1,24512
80,70800	1,24512
80,71816	1,25000
80,72833	1,25000
80,73849	1,24512
80,74865	1,25000
80,75881	1,25488
80,76898	1,25000
80,77914	1,24512
80,78930	1,24512
80,79946	1,25000
80,80962	1,24512
80,81979	1,25000
80,82995	1,24512
80,84011	1,25488
80,85027	1,24512
80,86044	1,25000
80,87060	1,25000
80,88076	1,24512
80,89092	1,25000
80,90108	1,24512
80,91125	1,25000
80,92141	1,24512
80,93157	1,24512
80,94173	1,24512
80,95189	1,25000
80,96206	1,25000
80,97222	1,25000
80,98238	1,24512
80,99254	1,24512
81,00271	1,24023
81,01287	1,25000
81,02303	1,24512
81,03319	1,25488
81,04335	1,25000
81,05352	1,24512
81,06368	1,25000
81,07384	1,24512
81,08400	1,24512
81,09417	1,24512
81,10433	1,24512
81,11449	1,24512
81,12465	1,24512
81,13481	1,25000
81,14498	1,24512
81,15514	1,24512
81,16530	1,25000
81,17546	1,24512
81,18563	1,25000
81,19579	1,24023
81,20595	1,24512
81,21611	1,24512
81,22627	1,24512
81,23644	1,24512
81,24660	1,24512
81,25676	1,24512
81,26692	1,25488
81,27708	1,24512
81,28725	1,24512
81,29741	1,24023
81,30757	1,25000
81,31773	1,24512
81,32790	1,25000
81,33806	1,24512
81,34822	1,24512
81,35838	1,24512
81,36854	1,25000
81,37871	1,24023
81,38887	1,24512
81,39903	1,25000
81,40919	1,24023
81,41936	1,25000
81,42952	1,25000
81,43968	1,24512
81,44984	1,25000
81,46000	1,24023
81,47017	1,24512
81,48033	1,25000
81,49049	1,24512
81,50065	1,25000
81,51081	1,24023
81,52098	1,24512
81,53114	1,25000
81,54130	1,24512
81,55146	1,25000
81,56163	1,24512
81,57179	1,24512
81,58195	1,24512
81,59211	1,25000
81,60227	1,25000
81,61244	1,24512
81,62260	1,24512
81,63276	1,24512
81,64292	1,24512
81,65309	1,25000
81,66325	1,24023
81,67341	1,25000
81,68357	1,25000
81,69373	1,24512
81,70390	1,24512
81,71406	1,24512
81,72422	1,24512
81,73438	1,24512
81,74454	1,24023
81,75471	1,24512
81,76487	1,24512
81,77503	1,24512
81,78519	1,24512
81,79536	1,25000
81,80552	1,24512
81,81568	1,24512
81,82584	1,25000
81,83600	1,24512
81,84617	1,24512
81,85633	1,24512
81,86649	1,25000
81,87665	1,24512
81,88682	1,25000
81,89698	1,24512
81,90714	1,25000
81,91730	1,24512
81,92746	1,25000
81,93763	1,24512
81,94779	1,25000
81,95795	1,25488
81,96811	1,25000
81,97827	1,24512
81,98844	1,24512
81,99860	1,24512
82,00876	1,24023
82,01892	1,25488
82,02909	1,24512
82,03925	1,24512
82,04941	1,25000
82,05957	1,24023
82,06973	1,24512
82,07990	1,24512
82,09006	1,24023
82,10022	1,24512
82,11038	1,24512
82,12055	1,24512
82,13071	1,25000
82,14087	1,24512
82,15103	1,25000
82,16119	1,24512
82,17136	1,25000
82,18152	1,24512
82,19168	1,24512
82,20184	1,25000
82,21200	1,24512
82,22217	1,24512
82,23233	1,25000
82,24249	1,25000
82,25265	1,24512
82,26282	1,24512
82,27298	1,24512
82,28314	1,25000
82,29330	1,24512
82,30346	1,24512
82,31363	1,25000
82,32379	1,25000
82,33395	1,25000
82,34411	1,24512
82,35428	1,25000
82,36444	1,25000
82,37460	1,24512
82,38476	1,25000
82,39492	1,24512
82,40509	1,24512
82,41525	1,25000
82,42541	1,24512
82,43557	1,24512
82,44573	1,25000
82,45590	1,24512
82,46606	1,25000
82,47622	1,24023
82,48638	1,25000
82,49655	1,24512
82,50671	1,24512
82,51687	1,25977
82,52703	1,24512
82,53719	1,24512
82,54736	1,25000
82,55752	1,24512
82,56768	1,25000
82,57784	1,24512
82,58801	1,25000
82,59817	1,24512
82,60833	1,25000
82,61849	1,24512
82,62865	1,24512
82,63882	1,24512
82,64898	1,25000
82,65914	1,24512
82,66930	1,24512
82,67946	1,24512
82,68963	1,24512
82,69979	1,25000
82,70995	1,24512
82,72011	1,24512
82,73028	1,25000
82,74044	1,24512
82,75060	1,25000
82,76076	1,25000
82,77092	1,24512
82,78109	1,25000
82,79125	1,24512
82,80141	1,25000
82,81157	1,24023
82,82174	1,24512
82,83190	1,24512
82,84206	1,24512
82,85222	1,25000
82,86238	1,24512
82,87255	1,25000
82,88271	1,24512
82,89287	1,24512
82,90303	1,25000
82,91319	1,24512
82,92336	1,24023
82,93352	1,25000
82,94368	1,24512
82,95384	1,24512
82,96401	1,24023
82,97417	1,24023
82,98433	1,24512
82,99449	1,25000
83,00465	1,24512
83,01482	1,24023
83,02498	1,24023
83,03514	1,25000
83,04530	1,24512
83,05547	1,24512
83,06563	1,24512
83,07579	1,24512
83,08595	1,24512
83,09611	1,24512
83,10628	1,24512
83,11644	1,25000
83,12660	1,24512
83,13676	1,24512
83,14693	1,25000
83,15709	1,24512
83,16725	1,25000
83,17741	1,24512
83,18757	1,24512
83,19774	1,25000
83,20790	1,24512
83,21806	1,25000
83,22822	1,24512
83,23838	1,25000
83,24855	1,25000
83,25871	1,25488
83,26887	1,25000
83,27903	1,24512
83,28920	1,25488
83,29936	1,25000
83,30952	1,24512
83,31968	1,24512
83,32984	1,25000
83,34001	1,25000
83,35017	1,25000
83,36033	1,25000
83,37049	1,25000
83,38066	1,24512
83,39082	1,25000
83,40098	1,24512
83,41114	1,25488
83,42130	1,24512
83,43147	1,25488
83,44163	1,25000
83,45179	1,25000
83,46195	1,24512
83,47211	1,24512
83,48228	1,25000
83,49244	1,25000
83,50260	1,25000
83,51276	1,24512
83,52293	1,24512
83,53309	1,24512
83,54325	1,25000
83,55341	1,25000
83,56357	1,25000
83,57374	1,24023
83,58390	1,25000
83,59406	1,24512
83,60422	1,24512
83,61439	1,25000
83,62455	1,24023
83,63471	1,24512
83,64487	1,24512
83,65503	1,24512
83,66520	1,24512
83,67536	1,24023
83,68552	1,25000
83,69568	1,24512
83,70584	1,25488
83,71601	1,25000
83,72617	1,24512
83,73633	1,24023
83,74649	1,25000
83,75666	1,24512
83,76682	1,24512
83,77698	1,25000
83,78714	1,25000
83,79730	1,25000
83,80747	1,25000
83,81763	1,25000
83,82779	1,24512
83,83795	1,25000
83,84812	1,24512
83,85828	1,25000
83,86844	1,24512
83,87860	1,24512
83,88876	1,24512
83,89893	1,24023
83,90909	1,24512
83,91925	1,24512
83,92941	1,25000
83,93957	1,24512
83,94974	1,24512
83,95990	1,24512
83,97006	1,25000
83,98022	1,25000
83,99039	1,24512
84,00055	1,25977
84,01071	1,24512
84,02087	1,25000
84,03103	1,25977
84,04120	1,24512
84,05136	1,24512
84,06152	1,24512
84,07168	1,24512
84,08185	1,25000
84,09201	1,24512
84,10217	1,25000
84,11233	1,25000
84,12249	1,24023
84,13266	1,25000
84,14282	1,24512
84,15298	1,25000
84,16314	1,24512
84,17330	1,25488
84,18347	1,25000
84,19363	1,24512
84,20379	1,24512
84,21395	1,25000
84,22412	1,24512
84,23428	1,25000
84,24444	1,24512
84,25460	1,25000
84,26476	1,25488
84,27493	1,25000
84,28509	1,25000
84,29525	1,24512
84,30541	1,25000
84,31558	1,25000
84,32574	1,24023
84,33590	1,24512
84,34606	1,24512
84,35622	1,24512
84,36639	1,25000
84,37655	1,25000
84,38671	1,24512
84,39687	1,25000
84,40703	1,25000
84,41720	1,24512
84,42736	1,24512
84,43752	1,25000
84,44768	1,24512
84,45785	1,24023
84,46801	1,24512
84,47817	1,25000
84,48833	1,24512
84,49849	1,24512
84,50866	1,24023
84,51882	1,24512
84,52898	1,25000
84,53914	1,24512
84,54931	1,25000
84,55947	1,24512
84,56963	1,24512
84,57979	1,24512
84,58995	1,24023
84,60012	1,25000
84,61028	1,24512
84,62044	1,25000
84,63060	1,25000
84,64076	1,24512
84,65093	1,25000
84,66109	1,24512
84,67125	1,25000
84,68141	1,25000
84,69158	1,24512
84,70174	1,24512
84,71190	1,24512
84,72206	1,25000
84,73222	1,24512
84,74239	1,24512
84,75255	1,25000
84,76271	1,24512
84,77287	1,24512
84,78304	1,25000
84,79320	1,24512
84,80336	1,25000
84,81352	1,24512
84,82368	1,25000
84,83385	1,24512
84,84401	1,25000
84,85417	1,24512
84,86433	1,25000
84,87449	1,24023
84,88466	1,25000
84,89482	1,25000
84,90498	1,24512
84,91514	1,25488
84,92531	1,24512
84,93547	1,24512
84,94563	1,25000
84,95579	1,25488
84,96595	1,25000
84,97612	1,24512
84,98628	1,24512
84,99644	1,25000
85,00660	1,25000
85,01677	1,25000
85,02693	1,24512
85,03709	1,24512
85,04725	1,24512
85,05741	1,24512
85,06758	1,24512
85,07774	1,25000
85,08790	1,24512
85,09806	1,24512
85,10823	1,25000
85,11839	1,24512
85,12855	1,24512
85,13871	1,24023
85,14887	1,25000
85,15904	1,24512
85,16920	1,24512
85,17936	1,24512
85,18952	1,24512
85,19968	1,24512
85,20985	1,25000
85,22001	1,24512
85,23017	1,25000
85,24033	1,25000
85,25050	1,25488
85,26066	1,24512
85,27082	1,24512
85,28098	1,24512
85,29114	1,24512
85,30131	1,25000
85,31147	1,25000
85,32163	1,24512
85,33179	1,25000
85,34196	1,24023
85,35212	1,24512
85,36228	1,25000
85,37244	1,24512
85,38260	1,24512
85,39277	1,25000
85,40293	1,24023
85,41309	1,24512
85,42325	1,24512
85,43341	1,25000
85,44358	1,24512
85,45374	1,24512
85,46390	1,25000
85,47406	1,24512
85,48423	1,25000
85,49439	1,25488
85,50455	1,24512
85,51471	1,25000
85,52487	1,24512
85,53504	1,24512
85,54520	1,25000
85,55536	1,25000
85,56552	1,24512
85,57569	1,25000
85,58585	1,24512
85,59601	1,25000
85,60617	1,24512
85,61633	1,24512
85,62650	1,24512
85,63666	1,25000
85,64682	1,24512
85,65698	1,24023
85,66714	1,25000
85,67731	1,24512
85,68747	1,24512
85,69763	1,24512
85,70779	1,24512
85,71796	1,25488
85,72812	1,25000
85,73828	1,24512
85,74844	1,25000
85,75860	1,24512
85,76877	1,25000
85,77893	1,24512
85,78909	1,24512
85,79925	1,24512
85,80942	1,25000
85,81958	1,24512
85,82974	1,24512
85,83990	1,24512
85,85006	1,24512
85,86023	1,24512
85,87039	1,25000
85,88055	1,25000
85,89071	1,24512
85,90087	1,25977
85,91104	1,24512
85,92120	1,24512
85,93136	1,24023
85,94152	1,24512
85,95169	1,24512
85,96185	1,24512
85,97201	1,25000
85,98217	1,25000
85,99233	1,24512
86,00250	1,24512
86,01266	1,25000
86,02282	1,25000
86,03298	1,24512
86,04315	1,25000
86,05331	1,24512
86,06347	1,25488
86,07363	1,24512
86,08379	1,24512
86,09396	1,24512
86,10412	1,24023
86,11428	1,24512
86,12444	1,24512
86,13460	1,25000
86,14477	1,24512
86,15493	1,25000
86,16509	1,24512
86,17525	1,25488
86,18542	1,24023
86,19558	1,25000
86,20574	1,24023
86,21590	1,24512
86,22606	1,24512
86,23623	1,25000
86,24639	1,25000
86,25655	1,24023
86,26671	1,25488
86,27688	1,24512
86,28704	1,24512
86,29720	1,24512
86,30736	1,24512
86,31752	1,25000
86,32769	1,24023
86,33785	1,25000
86,34801	1,25000
86,35817	1,24512
86,36833	1,25000
86,37850	1,25000
86,38866	1,24512
86,39882	1,25000
86,40898	1,25000
86,41915	1,24512
86,42931	1,25000
86,43947	1,24512
86,44963	1,25000
86,45979	1,24512
86,46996	1,24512
86,48012	1,24512
86,49028	1,24023
86,50044	1,24023
86,51061	1,25488
86,52077	1,24512
86,53093	1,25000
86,54109	1,24512
86,55125	1,24512
86,56142	1,24512
86,57158	1,24023
86,58174	1,24512
86,59190	1,24512
86,60206	1,24512
86,61223	1,25000
86,62239	1,25000
86,63255	1,24512
86,64271	1,24512
86,65288	1,25000
86,66304	1,25000
86,67320	1,24023
86,68336	1,25000
86,69352	1,24512
86,70369	1,25000
86,71385	1,25000
86,72401	1,24023
86,73417	1,25000
86,74434	1,24512
86,75450	1,24023
86,76466	1,25000
86,77482	1,24512
86,78498	1,25000
86,79515	1,24023
86,80531	1,24512
86,81547	1,24512
86,82563	1,24512
86,83579	1,25000
86,84596	1,24512
86,85612	1,24512
86,86628	1,25000
86,87644	1,25000
86,88661	1,24512
86,89677	1,25000
86,90693	1,24023
86,91709	1,25000
86,92725	1,24512
86,93742	1,24512
86,94758	1,25000
86,95774	1,24512
86,96790	1,24512
86,97807	1,24023
86,98823	1,25000
86,99839	1,24512
87,00855	1,25000
87,01871	1,25000
87,02888	1,25000
87,03904	1,24512
87,04920	1,25000
87,05936	1,24023
87,06953	1,25000
87,07969	1,24512
87,08985	1,24512
87,10001	1,25000
87,11017	1,24512
87,12034	1,25000
87,13050	1,24512
87,14066	1,24512
87,15082	1,25000
87,16098	1,24512
87,17115	1,24512
87,18131	1,24512
87,19147	1,25000
87,20163	1,24512
87,21180	1,25000
87,22196	1,24512
87,23212	1,25488
87,24228	1,24512
87,25244	1,25000
87,26261	1,25000
87,27277	1,24512
87,28293	1,25000
87,29309	1,25488
87,30326	1,24512
87,31342	1,25000
87,32358	1,24512
87,33374	1,24512
87,34390	1,24512
87,35407	1,24512
87,36423	1,24512
87,37439	1,24512
87,38455	1,24512
87,39471	1,25000
87,40488	1,24512
87,41504	1,25000
87,42520	1,24512
87,43536	1,25000
87,44553	1,25000
87,45569	1,24023
87,46585	1,25488
87,47601	1,24512
87,48617	1,25000
87,49634	1,25000
87,50650	1,24512
87,51666	1,25000
87,52682	1,24512
87,53699	1,24512
87,54715	1,25977
87,55731	1,24512
87,56747	1,24512
87,57763	1,24512
87,58780	1,24512
87,59796	1,24512
87,60812	1,24512
87,61828	1,24512
87,62844	1,25000
87,63861	1,24512
87,64877	1,25000
87,65893	1,24512
87,66909	1,25000
87,67926	1,24512
87,68942	1,25000
87,69958	1,24512
87,70974	1,25000
87,71990	1,25488
87,73007	1,25488
87,74023	1,24023
87,75039	1,24023
87,76055	1,24512
87,77072	1,24512
87,78088	1,25000
87,79104	1,24512
87,80120	1,25488
87,81136	1,24512
87,82153	1,24512
87,83169	1,24512
87,84185	1,24512
87,85201	1,24023
87,86217	1,24512
87,87234	1,24512
87,88250	1,24512
87,89266	1,24512
87,90282	1,24512
87,91299	1,25000
87,92315	1,24023
87,93331	1,25000
87,94347	1,25000
87,95363	1,24512
87,96380	1,25000
87,97396	1,24512
87,98412	1,25000
87,99428	1,24512
88,00445	1,24512
88,01461	1,25000
88,02477	1,24512
88,03493	1,24512
88,04509	1,25000
88,05526	1,25000
88,06542	1,25000
88,07558	1,24512
88,08574	1,24512
88,09590	1,24512
88,10607	1,24023
88,11623	1,24512
88,12639	1,24512
88,13655	1,24512
88,14672	1,25000
88,15688	1,25000
88,16704	1,24512
88,17720	1,25000
88,18736	1,24023
88,19753	1,25000
88,20769	1,25000
88,21785	1,24512
88,22801	1,25000
88,23818	1,25000
88,24834	1,24512
88,25850	1,25000
88,26866	1,24512
88,27882	1,24512
88,28899	1,24512
88,29915	1,25000
88,30931	1,24512
88,31947	1,24512
88,32963	1,25000
88,33980	1,24512
88,34996	1,25000
88,36012	1,25000
88,37028	1,24512
88,38045	1,25000
88,39061	1,24512
88,40077	1,24023
88,41093	1,24512
88,42109	1,24512
88,43126	1,24512
88,44142	1,24512
88,45158	1,25000
88,46174	1,24512
88,47191	1,24512
88,48207	1,24512
88,49223	1,24512
88,50239	1,25000
88,51255	1,25000
88,52272	1,24512
88,53288	1,24512
88,54304	1,25000
88,55320	1,24512
88,56336	1,25000
88,57353	1,24512
88,58369	1,25000
88,59385	1,24512
88,60401	1,25000
88,61418	1,24512
88,62434	1,24023
88,63450	1,24512
88,64466	1,25000
88,65482	1,24023
88,66499	1,24512
88,67515	1,24512
88,68531	1,25000
88,69547	1,25488
88,70564	1,25000
88,71580	1,24512
88,72596	1,24512
88,73612	1,24512
88,74628	1,25000
88,75645	1,24512
88,76661	1,24512
88,77677	1,24023
88,78693	1,24512
88,79709	1,24512
88,80726	1,25000
88,81742	1,24512
88,82758	1,25488
88,83774	1,24512
88,84791	1,25000
88,85807	1,24512
88,86823	1,24512
88,87839	1,24512
88,88855	1,24512
88,89872	1,25488
88,90888	1,25488
88,91904	1,25000
88,92920	1,24512
88,93937	1,24512
88,94953	1,24512
88,95969	1,24512
88,96985	1,24023
88,98001	1,24512
88,99018	1,24512
89,00034	1,24512
89,01050	1,24512
89,02066	1,25000
89,03083	1,24512
89,04099	1,24512
89,05115	1,24512
89,06131	1,25000
89,07147	1,24512
89,08164	1,25000
89,09180	1,24023
89,10196	1,24512
89,11212	1,24512
89,12228	1,24512
89,13245	1,24512
89,14261	1,25000
89,15277	1,25000
89,16293	1,25000
89,17310	1,25000
89,18326	1,24512
89,19342	1,24512
89,20358	1,24512
89,21374	1,25488
89,22391	1,25488
89,23407	1,25000
89,24423	1,24512
89,25439	1,25000
89,26456	1,24512
89,27472	1,25000
89,28488	1,25000
89,29504	1,25000
89,30520	1,24023
89,31537	1,25000
89,32553	1,25000
89,33569	1,25488
89,34585	1,24512
89,35601	1,25488
89,36618	1,24023
89,37634	1,25000
89,38650	1,24023
89,39666	1,25000
89,40683	1,24512
89,41699	1,24512
89,42715	1,25000
89,43731	1,24512
89,44747	1,25000
89,45764	1,25488
89,46780	1,25977
89,47796	1,25000
89,48812	1,24512
89,49829	1,24512
89,50845	1,25000
89,51861	1,25000
89,52877	1,24512
89,53893	1,24512
89,54910	1,25000
89,55926	1,24023
89,56942	1,25000
89,57958	1,24512
89,58974	1,24512
89,59991	1,24512
89,61007	1,24512
89,62023	1,23535
89,63039	1,25000
89,64056	1,25000
89,65072	1,25000
89,66088	1,25000
89,67104	1,25000
89,68120	1,25000
89,69137	1,25000
89,70153	1,24512
89,71169	1,25000
89,72185	1,25000
89,73202	1,24512
89,74218	1,25000
89,75234	1,24512
89,76250	1,24512
89,77266	1,24512
89,78283	1,25488
89,79299	1,24512
89,80315	1,24512
89,81331	1,24512
89,82347	1,24512
89,83364	1,25488
89,84380	1,24512
89,85396	1,24512
89,86412	1,25000
89,87429	1,24512
89,88445	1,25488
89,89461	1,24512
89,90477	1,24512
89,91493	1,24512
89,92510	1,24512
89,93526	1,24023
89,94542	1,25000
89,95558	1,24023
89,96575	1,24512
89,97591	1,24023
89,98607	1,24512
89,99623	1,24023
90,00639	1,24512
90,01656	1,24512
90,02672	1,24512
90,03688	1,24512
90,04704	1,25000
90,05720	1,24512
90,06737	1,25000
90,07753	1,24023
90,08769	1,23535
90,09785	1,25000
90,10802	1,25488
90,11818	1,25000
90,12834	1,24512
90,13850	1,24512
90,14866	1,25000
90,15883	1,24512
90,16899	1,24512
90,17915	1,25488
90,18931	1,25000
90,19948	1,25000
90,20964	1,24512
90,21980	1,25000
90,22996	1,24512
90,24012	1,25000
90,25029	1,24512
90,26045	1,25000
90,27061	1,24512
90,28077	1,25000
90,29093	1,24512
90,30110	1,24023
90,31126	1,24512
90,32142	1,24512
90,33158	1,25000
90,34175	1,24512
90,35191	1,25488
90,36207	1,25977
90,37223	1,25000
90,38239	1,24512
90,39256	1,25000
90,40272	1,24023
90,41288	1,25000
90,42304	1,24023
90,43321	1,25000
90,44337	1,24512
90,45353	1,24512
90,46369	1,25488
90,47385	1,24512
90,48402	1,24512
90,49418	1,24512
90,50434	1,24512
90,51450	1,24512
90,52466	1,24023
90,53483	1,24512
90,54499	1,24512
90,55515	1,25000
90,56531	1,24512
90,57548	1,24512
90,58564	1,24512
90,59580	1,25488
90,60596	1,24023
90,61612	1,25000
90,62629	1,24512
90,63645	1,25000
90,64661	1,25488
90,65677	1,24512
90,66694	1,25488
90,67710	1,24512
90,68726	1,24023
90,69742	1,24512
90,70758	1,24512
90,71775	1,24512
90,72791	1,25000
90,73807	1,24512
90,74823	1,24512
90,75839	1,25000
90,76856	1,24512
90,77872	1,25000
90,78888	1,24023
90,79904	1,24512
90,80921	1,24512
90,81937	1,24023
90,82953	1,25000
90,83969	1,24023
90,84985	1,25000
90,86002	1,25000
90,87018	1,24023
90,88034	1,25000
90,89050	1,24023
90,90067	1,25000
90,91083	1,25000
90,92099	1,24512
90,93115	1,25000
90,94131	1,24512
90,95148	1,24512
90,96164	1,24512
90,97180	1,24512
90,98196	1,25000
90,99212	1,25000
91,00229	1,25000
91,01245	1,24512
91,02261	1,24512
91,03277	1,25488
91,04294	1,24512
91,05310	1,24512
91,06326	1,24512
91,07342	1,25000
91,08358	1,24512
91,09375	1,25000
91,10391	1,24512
91,11407	1,24023
91,12423	1,25488
91,13440	1,24023
91,14456	1,25000
91,15472	1,24023
91,16488	1,25000
91,17504	1,24512
91,18521	1,25000
91,19537	1,25000
91,20553	1,24512
91,21569	1,24512
91,22586	1,24512
91,23602	1,24023
91,24618	1,25000
91,25634	1,24512
91,26650	1,24512
91,27667	1,24512
91,28683	1,24512
91,29699	1,24512
91,30715	1,24023
91,31731	1,25000
91,32748	1,24512
91,33764	1,24512
91,34780	1,25000
91,35796	1,24512
91,36813	1,25000
91,37829	1,24512
91,38845	1,24512
91,39861	1,24512
91,40877	1,25000
91,41894	1,24512
91,42910	1,25000
91,43926	1,24512
91,44942	1,24512
91,45959	1,25000
91,46975	1,24512
91,47991	1,25488
91,49007	1,24512
91,50023	1,24512
91,51040	1,25000
91,52056	1,24512
91,53072	1,25000
91,54088	1,24512
91,55104	1,25000
91,56121	1,24512
91,57137	1,24512
91,58153	1,25000
91,59169	1,24512
91,60186	1,24512
91,61202	1,25000
91,62218	1,24023
91,63234	1,24512
91,64250	1,24512
91,65267	1,24512
91,66283	1,25000
91,67299	1,25488
91,68315	1,25000
91,69332	1,24512
91,70348	1,24512
91,71364	1,25000
91,72380	1,24023
91,73396	1,25977
91,74413	1,24512
91,75429	1,24512
91,76445	1,24512
91,77461	1,24512
91,78477	1,25488
91,79494	1,24512
91,80510	1,25000
91,81526	1,24512
91,82542	1,25000
91,83559	1,24512
91,84575	1,25000
91,85591	1,24512
91,86607	1,25488
91,87623	1,24512
91,88640	1,25000
91,89656	1,24512
91,90672	1,25000
91,91688	1,24512
91,92705	1,25000
91,93721	1,24023
91,94737	1,25000
91,95753	1,24023
91,96769	1,25488
91,97786	1,25488
91,98802	1,24512
91,99818	1,24512
92,00834	1,25000
92,01850	1,24512
92,02867	1,24023
92,03883	1,25000
92,04899	1,24512
92,05915	1,24512
92,06932	1,24023
92,07948	1,25000
92,08964	1,24512
92,09980	1,24512
92,10996	1,24512
92,12013	1,25488
92,13029	1,25000
92,14045	1,25977
92,15061	1,24512
92,16078	1,24512
92,17094	1,23535
92,18110	1,24512
92,19126	1,24512
92,20142	1,24512
92,21159	1,24512
92,22175	1,24023
92,23191	1,25000
92,24207	1,24512
92,25223	1,24512
92,26240	1,25000
92,27256	1,24512
92,28272	1,25000
92,29288	1,24512
92,30305	1,25000
92,31321	1,25000
92,32337	1,24512
92,33353	1,24512
92,34369	1,25000
92,35386	1,24023
92,36402	1,24512
92,37418	1,25000
92,38434	1,24512
92,39451	1,25000
92,40467	1,25000
92,41483	1,25488
92,42499	1,24512
92,43515	1,25000
92,44532	1,25000
92,45548	1,25000
92,46564	1,25000
92,47580	1,25000
92,48596	1,24512
92,49613	1,24512
92,50629	1,25000
92,51645	1,24512
92,52661	1,25000
92,53678	1,24512
92,54694	1,25000
92,55710	1,24512
92,56726	1,24512
92,57742	1,25000
92,58759	1,24512
92,59775	1,24512
92,60791	1,25488
92,61807	1,24512
92,62824	1,25977
92,63840	1,25000
92,64856	1,24512
92,65872	1,24512
92,66888	1,24512
92,67905	1,24512
92,68921	1,24512
92,69937	1,24512
92,70953	1,25000
92,71969	1,24023
92,72986	1,25000
92,74002	1,24512
92,75018	1,24512
92,76034	1,24512
92,77051	1,25000
92,78067	1,25000
92,79083	1,24512
92,80099	1,24512
92,81115	1,25000
92,82132	1,24023
92,83148	1,24512
92,84164	1,25977
92,85180	1,24512
92,86197	1,24512
92,87213	1,25000
92,88229	1,25000
92,89245	1,24512
92,90261	1,24512
92,91278	1,25488
92,92294	1,24512
92,93310	1,24512
92,94326	1,25000
92,95342	1,24512
92,96359	1,25000
92,97375	1,24512
92,98391	1,24512
92,99407	1,24512
93,00424	1,24023
93,01440	1,25000
93,02456	1,24512
93,03472	1,24512
93,04488	1,25000
93,05505	1,24512
93,06521	1,24512
93,07537	1,24512
93,08553	1,25000
93,09570	1,24512
93,10586	1,24023
93,11602	1,25000
93,12618	1,24512
93,13634	1,24512
93,14651	1,24512
93,15667	1,24512
93,16683	1,24512
93,17699	1,24512
93,18716	1,24512
93,19732	1,24023
93,20748	1,24512
93,21764	1,24512
93,22780	1,25000
93,23797	1,24512
93,24813	1,25000
93,25829	1,24512
93,26845	1,24512
93,27861	1,25000
93,28878	1,24512
93,29894	1,24512
93,30910	1,24512
93,31926	1,24512
93,32943	1,25000
93,33959	1,24512
93,34975	1,24512
93,35991	1,25488
93,37007	1,24512
93,38024	1,25000
93,39040	1,24512
93,40056	1,25000
93,41072	1,24512
93,42089	1,24512
93,43105	1,25000
93,44121	1,25000
93,45137	1,24512
93,46153	1,24512
93,47170	1,24023
93,48186	1,24512
93,49202	1,25488
93,50218	1,24023
93,51234	1,25977
93,52251	1,24512
93,53267	1,25488
93,54283	1,24512
93,55299	1,25000
93,56316	1,24512
93,57332	1,24512
93,58348	1,24023
93,59364	1,25000
93,60380	1,25000
93,61397	1,25488
93,62413	1,24512
93,63429	1,25000
93,64445	1,24512
93,65462	1,24512
93,66478	1,25000
93,67494	1,24512
93,68510	1,24512
93,69526	1,25000
93,70543	1,24023
93,71559	1,25000
93,72575	1,25000
93,73591	1,25000
93,74607	1,24512
93,75624	1,25488
93,76640	1,25000
93,77656	1,25000
93,78672	1,24512
93,79689	1,25488
93,80705	1,24512
93,81721	1,24512
93,82737	1,25000
93,83753	1,24512
93,84770	1,25000
93,85786	1,24512
93,86802	1,25000
93,87818	1,24512
93,88835	1,24512
93,89851	1,24512
93,90867	1,24512
93,91883	1,25000
93,92899	1,25000
93,93916	1,25000
93,94932	1,24023
93,95948	1,24512
93,96964	1,24023
93,97980	1,24512
93,98997	1,24512
94,00013	1,24512
94,01029	1,25000
94,02045	1,24512
94,03062	1,24512
94,04078	1,24512
94,05094	1,25000
94,06110	1,25000
94,07126	1,24023
94,08143	1,24512
94,09159	1,25000
94,10175	1,25000
94,11191	1,25000
94,12208	1,24512
94,13224	1,25000
94,14240	1,24512
94,15256	1,24023
94,16272	1,25488
94,17289	1,24512
94,18305	1,25000
94,19321	1,25000
94,20337	1,24512
94,21353	1,25000
94,22370	1,24512
94,23386	1,25000
94,24402	1,25000
94,25418	1,24512
94,26435	1,25000
94,27451	1,24512
94,28467	1,25000
94,29483	1,25000
94,30499	1,24512
94,31516	1,24512
94,32532	1,25000
94,33548	1,24512
94,34564	1,24512
94,35581	1,24512
94,36597	1,25000
94,37613	1,24512
94,38629	1,24023
94,39645	1,25000
94,40662	1,24512
94,41678	1,25000
94,42694	1,24512
94,43710	1,24512
94,44726	1,24512
94,45743	1,24512
94,46759	1,24512
94,47775	1,24512
94,48791	1,24512
94,49808	1,25000
94,50824	1,24512
94,51840	1,24512
94,52856	1,25000
94,53872	1,25000
94,54889	1,24512
94,55905	1,25000
94,56921	1,24512
94,57937	1,25000
94,58954	1,24512
94,59970	1,25977
94,60986	1,25000
94,62002	1,24023
94,63018	1,25000
94,64035	1,24512
94,65051	1,25000
94,66067	1,24512
94,67083	1,24023
94,68099	1,24512
94,69116	1,24023
94,70132	1,24512
94,71148	1,25000
94,72164	1,24023
94,73181	1,25000
94,74197	1,24023
94,75213	1,24512
94,76229	1,24512
94,77245	1,24512
94,78262	1,24512
94,79278	1,24512
94,80294	1,25000
94,81310	1,25000
94,82327	1,24512
94,83343	1,25000
94,84359	1,24023
94,85375	1,25000
94,86391	1,24512
94,87408	1,24512
94,88424	1,24512
94,89440	1,25000
94,90456	1,24512
94,91472	1,24023
94,92489	1,24512
94,93505	1,25000
94,94521	1,25488
94,95537	1,24512
94,96554	1,24512
94,97570	1,24023
94,98586	1,24512
94,99602	1,25000
95,00618	1,24512
95,01635	1,24512
95,02651	1,24512
95,03667	1,24512
95,04683	1,25000
95,05700	1,24512
95,06716	1,24512
95,07732	1,25000
95,08748	1,24512
95,09764	1,25000
95,10781	1,24512
95,11797	1,24512
95,12813	1,24512
95,13829	1,25000
95,14846	1,25488
95,15862	1,24023
95,16878	1,24512
95,17894	1,24512
95,18910	1,24023
95,19927	1,24023
95,20943	1,24512
95,21959	1,24512
95,22975	1,24512
95,23991	1,25488
95,25008	1,24512
95,26024	1,24512
95,27040	1,24023
95,28056	1,24512
95,29073	1,25000
95,30089	1,25488
95,31105	1,25000
95,32121	1,24023
95,33137	1,25000
95,34154	1,24512
95,35170	1,24023
95,36186	1,25000
95,37202	1,24023
95,38219	1,25000
95,39235	1,24512
95,40251	1,24023
95,41267	1,24512
95,42283	1,24512
95,43300	1,25000
95,44316	1,24512
95,45332	1,24023
95,46348	1,25000
95,47364	1,24512
95,48381	1,24512
95,49397	1,25000
95,50413	1,24512
95,51429	1,24512
95,52446	1,24512
95,53462	1,24512
95,54478	1,24512
95,55494	1,24512
95,56510	1,25488
95,57527	1,25000
95,58543	1,24512
95,59559	1,24512
95,60575	1,24023
95,61592	1,25000
95,62608	1,24512
95,63624	1,24512
95,64640	1,24512
95,65656	1,24512
95,66673	1,25000
95,67689	1,24512
95,68705	1,24023
95,69721	1,25000
95,70737	1,24512
95,71754	1,25000
95,72770	1,24512
95,73786	1,24512
95,74802	1,25000
95,75819	1,24512
95,76835	1,24023
95,77851	1,24512
95,78867	1,24512
95,79883	1,24512
95,80900	1,25000
95,81916	1,24512
95,82932	1,25000
95,83948	1,24512
95,84965	1,24512
95,85981	1,24512
95,86997	1,24512
95,88013	1,24512
95,89029	1,24512
95,90046	1,25000
95,91062	1,24512
95,92078	1,24512
95,93094	1,25000
95,94110	1,24512
95,95127	1,24512
95,96143	1,24512
95,97159	1,24512
95,98175	1,25000
95,99192	1,25000
96,00208	1,24512
96,01224	1,25488
96,02240	1,24023
96,03256	1,24512
96,04273	1,25000
96,05289	1,24512
96,06305	1,24512
96,07321	1,24512
96,08338	1,24512
96,09354	1,25000
96,10370	1,24512
96,11386	1,23535
96,12402	1,25000
96,13419	1,24512
96,14435	1,24512
96,15451	1,24512
96,16467	1,24512
96,17483	1,24512
96,18500	1,24512
96,19516	1,25000
96,20532	1,25000
96,21548	1,24023
96,22565	1,24512
96,23581	1,24512
96,24597	1,25000
96,25613	1,23535
96,26629	1,25000
96,27646	1,25000
96,28662	1,24512
96,29678	1,25488
96,30694	1,24512
96,31711	1,25488
96,32727	1,25000
96,33743	1,24512
96,34759	1,25000
96,35775	1,24512
96,36792	1,24512
96,37808	1,25000
96,38824	1,24023
96,39840	1,25000
96,40856	1,24023
96,41873	1,24512
96,42889	1,25000
96,43905	1,24023
96,44921	1,25000
96,45938	1,24512
96,46954	1,24512
96,47970	1,25000
96,48986	1,24512
96,50002	1,25000
96,51019	1,25000
96,52035	1,24512
96,53051	1,24512
96,54067	1,24512
96,55084	1,24512
96,56100	1,25000
96,57116	1,25000
96,58132	1,25000
96,59148	1,24512
96,60165	1,24512
96,61181	1,24512
96,62197	1,25000
96,63213	1,24512
96,64229	1,24512
96,65246	1,24512
96,66262	1,25000
96,67278	1,25000
96,68294	1,25000
96,69311	1,25000
96,70327	1,24512
96,71343	1,25000
96,72359	1,24512
96,73375	1,24512
96,74392	1,24512
96,75408	1,25000
96,76424	1,25000
96,77440	1,24512
96,78457	1,25000
96,79473	1,25000
96,80489	1,24023
96,81505	1,25000
96,82521	1,24512
96,83538	1,25000
96,84554	1,25000
96,85570	1,23535
96,86586	1,24512
96,87602	1,25000
96,88619	1,24512
96,89635	1,25000
96,90651	1,23535
96,91667	1,25000
96,92684	1,24512
96,93700	1,24512
96,94716	1,25000
96,95732	1,24512
96,96748	1,25000
96,97765	1,25000
96,98781	1,24512
96,99797	1,24512
97,00813	1,24512
97,01830	1,24512
97,02846	1,24512
97,03862	1,24512
97,04878	1,24512
97,05894	1,24023
97,06911	1,24512
97,07927	1,25000
97,08943	1,25977
97,09959	1,25000
97,10976	1,24512
97,11992	1,24512
97,13008	1,25977
97,14024	1,24512
97,15040	1,24512
97,16057	1,24512
97,17073	1,24512
97,18089	1,24512
97,19105	1,25000
97,20121	1,24512
97,21138	1,25000
97,22154	1,24512
97,23170	1,24023
97,24186	1,24512
97,25203	1,24023
97,26219	1,24512
97,27235	1,24512
97,28251	1,25000
97,29267	1,25000
97,30284	1,25000
97,31300	1,24512
97,32316	1,25000
97,33332	1,24512
97,34349	1,25000
97,35365	1,24512
97,36381	1,24512
97,37397	1,24512
97,38413	1,25000
97,39430	1,24512
97,40446	1,24512
97,41462	1,25000
97,42478	1,25000
97,43494	1,24512
97,44511	1,25000
97,45527	1,24512
97,46543	1,24512
97,47559	1,24512
97,48576	1,24023
97,49592	1,25000
97,50608	1,24023
97,51624	1,24512
97,52640	1,24512
97,53657	1,24512
97,54673	1,24512
97,55689	1,24512
97,56705	1,24512
97,57722	1,24512
97,58738	1,25000
97,59754	1,25000
97,60770	1,25000
97,61786	1,25000
97,62803	1,24512
97,63819	1,24512
97,64835	1,25488
97,65851	1,24512
97,66867	1,24512
97,67884	1,25000
97,68900	1,25000
97,69916	1,25000
97,70932	1,25000
97,71949	1,24023
97,72965	1,25000
97,73981	1,24023
97,74997	1,25000
97,76013	1,24023
97,77030	1,24512
97,78046	1,25000
97,79062	1,24023
97,80078	1,24512
97,81095	1,25000
97,82111	1,24023
97,83127	1,25000
97,84143	1,24512
97,85159	1,24512
97,86176	1,25000
97,87192	1,24512
97,88208	1,24512
97,89224	1,24512
97,90240	1,24512
97,91257	1,25000
97,92273	1,24023
97,93289	1,24512
97,94305	1,25000
97,95322	1,24512
97,96338	1,24512
97,97354	1,24512
97,98370	1,24512
97,99386	1,24512
98,00403	1,24512
98,01419	1,25000
98,02435	1,24512
98,03451	1,24512
98,04468	1,24512
98,05484	1,24023
98,06500	1,24512
98,07516	1,24512
98,08532	1,24512
98,09549	1,25000
98,10565	1,25000
98,11581	1,24512
98,12597	1,25977
98,13613	1,24512
98,14630	1,24512
98,15646	1,24512
98,16662	1,24512
98,17678	1,24512
98,18695	1,25000
98,19711	1,24512
98,20727	1,24512
98,21743	1,25000
98,22759	1,24512
98,23776	1,24023
98,24792	1,25000
98,25808	1,25000
98,26824	1,24512
98,27841	1,25000
98,28857	1,24023
98,29873	1,24512
98,30889	1,24512
98,31905	1,24512
98,32922	1,24023
98,33938	1,24512
98,34954	1,24512
98,35970	1,25488
98,36986	1,24512
98,38003	1,25977
98,39019	1,24023
98,40035	1,25000
98,41051	1,24512
98,42068	1,24023
98,43084	1,24512
98,44100	1,24512
98,45116	1,24512
98,46132	1,24512
98,47149	1,24023
98,48165	1,25000
98,49181	1,25000
98,50197	1,24512
98,51214	1,25000
98,52230	1,25000
98,53246	1,24512
98,54262	1,24512
98,55278	1,24512
98,56295	1,24512
