fecha de inicio :	2022-02-17
hora de inicio :	13:03:45,01522
tasa de muestreo :	100 Hz
	
tiempo desde inicio (s)	voltaje (V)
0,00000	0,46875
0,01010	0,46387
0,02019	0,46387
0,03029	0,46387
0,04038	0,46875
0,05048	0,46875
0,06057	0,46387
0,07067	0,46387
0,08076	0,46875
0,09086	0,46387
0,10095	0,45898
0,11105	0,46387
0,12114	0,46387
0,13124	0,46387
0,14133	0,46387
0,15143	0,46387
0,16152	0,46875
0,17162	0,46875
0,18171	0,45898
0,19181	0,46875
0,20190	0,46875
0,21200	0,46387
0,22209	0,46875
0,23219	0,46387
0,24228	0,46387
0,25238	0,46875
0,26247	0,46387
0,27257	0,47363
0,28267	0,46387
0,29276	0,46387
0,30286	0,46875
0,31295	0,45898
0,32305	0,46387
0,33314	0,47363
0,34324	0,45898
0,35333	0,46387
0,36343	0,46875
0,37352	0,46387
0,38362	0,46875
0,39371	0,46387
0,40381	0,45898
0,41390	0,46387
0,42400	0,46387
0,43409	0,45898
0,44419	0,46387
0,45428	0,46387
0,46438	0,46387
0,47447	0,46387
0,48457	0,46387
0,49466	0,46387
0,50476	0,46875
0,51485	0,46875
0,52495	0,46387
0,53504	0,45898
0,54514	0,46387
0,55523	0,46387
0,56533	0,46875
0,57543	0,46875
0,58552	0,46387
0,59562	0,46387
0,60571	0,47363
0,61581	0,45898
0,62590	0,46387
0,63600	0,46387
0,64609	0,46875
0,65619	0,46875
0,66628	0,46387
0,67638	0,47363
0,68647	0,46387
0,69657	0,46875
0,70666	0,46875
0,71676	0,45898
0,72685	0,46387
0,73695	0,46387
0,74704	0,46387
0,75714	0,46387
0,76723	0,46875
0,77733	0,46875
0,78742	0,45898
0,79752	0,46387
0,80761	0,46387
0,81771	0,46875
0,82780	0,46387
0,83790	0,47363
0,84800	0,46875
0,85809	0,46387
0,86819	0,46387
0,87828	0,46875
0,88838	0,46387
0,89847	0,46387
0,90857	0,46387
0,91866	0,46387
0,92876	0,46387
0,93885	0,46387
0,94895	0,46387
0,95904	0,46875
0,96914	0,46387
0,97923	0,46387
0,98933	0,46875
0,99942	0,46387
1,00952	0,46387
1,01961	0,46387
1,02971	0,46875
1,03980	0,45898
1,04990	0,46387
1,05999	0,46387
1,07009	0,46875
1,08018	0,47363
1,09028	0,46387
1,10037	0,46387
1,11047	0,46387
1,12057	0,45410
1,13066	0,46387
1,14076	0,47363
1,15085	0,46387
1,16095	0,46387
1,17104	0,46387
1,18114	0,46387
1,19123	0,46387
1,20133	0,45898
1,21142	0,46387
1,22152	0,45410
1,23161	0,46875
1,24171	0,46387
1,25180	0,46875
1,26190	0,47363
1,27199	0,46387
1,28209	0,46387
1,29218	0,46387
1,30228	0,46875
1,31237	0,46387
1,32247	0,46875
1,33256	0,46387
1,34266	0,46387
1,35275	0,45898
1,36285	0,46387
1,37294	0,47363
1,38304	0,45898
1,39313	0,46387
1,40323	0,46875
1,41333	0,46875
1,42342	0,46875
1,43352	0,46387
1,44361	0,46875
1,45371	0,46387
1,46380	0,46875
1,47390	0,46387
1,48399	0,45898
1,49409	0,46387
1,50418	0,46387
1,51428	0,46387
1,52437	0,46875
1,53447	0,46387
1,54456	0,46875
1,55466	0,46387
1,56475	0,46387
1,57485	0,45410
1,58494	0,46387
1,59504	0,46387
1,60513	0,46387
1,61523	0,46387
1,62532	0,46387
1,63542	0,45410
1,64551	0,46875
1,65561	0,46387
1,66570	0,45898
1,67580	0,46875
1,68590	0,47363
1,69599	0,46387
1,70609	0,47852
1,71618	0,46387
1,72628	0,46387
1,73637	0,46387
1,74647	0,46387
1,75656	0,46875
1,76666	0,45898
1,77675	0,45898
1,78685	0,46387
1,79694	0,46387
1,80704	0,46875
1,81713	0,46387
1,82723	0,46875
1,83732	0,46387
1,84742	0,46875
1,85751	0,46875
1,86761	0,46387
1,87770	0,46387
1,88780	0,46387
1,89789	0,46387
1,90799	0,46875
1,91808	0,46387
1,92818	0,46875
1,93827	0,46387
1,94837	0,46387
1,95847	0,47363
1,96856	0,45410
1,97866	0,46875
1,98875	0,46387
1,99885	0,46387
2,00894	0,46875
2,01904	0,46387
2,02913	0,46387
2,03923	0,46387
2,04932	0,46387
2,05942	0,46387
2,06951	0,46387
2,07961	0,46387
2,08970	0,46387
2,09980	0,46875
2,10989	0,45898
2,11999	0,47363
2,13008	0,46387
2,14018	0,46875
2,15027	0,46875
2,16037	0,46875
2,17046	0,46387
2,18056	0,46387
2,19065	0,45898
2,20075	0,46387
2,21084	0,46387
2,22094	0,46387
2,23103	0,46387
2,24113	0,46387
2,25123	0,46387
2,26132	0,46387
2,27142	0,45898
2,28151	0,46387
2,29161	0,46875
2,30170	0,46875
2,31180	0,46387
2,32189	0,46875
2,33199	0,46387
2,34208	0,45898
2,35218	0,46875
2,36227	0,45898
2,37237	0,46875
2,38246	0,46387
2,39256	0,46387
2,40265	0,46875
2,41275	0,45898
2,42284	0,46387
2,43294	0,46387
2,44303	0,46387
2,45313	0,46387
2,46322	0,46387
2,47332	0,47363
2,48341	0,46875
2,49351	0,46387
2,50360	0,46875
2,51370	0,46387
2,52380	0,45898
2,53389	0,46387
2,54399	0,46387
2,55408	0,46387
2,56418	0,46875
2,57427	0,46387
2,58437	0,46875
2,59446	0,46387
2,60456	0,46387
2,61465	0,46387
2,62475	0,46387
2,63484	0,47363
2,64494	0,46387
2,65503	0,46875
2,66513	0,46387
2,67522	0,46387
2,68532	0,46387
2,69541	0,45898
2,70551	0,46387
2,71560	0,46875
2,72570	0,46875
2,73579	0,46875
2,74589	0,46875
2,75598	0,46387
2,76608	0,46875
2,77617	0,46875
2,78627	0,46387
2,79637	0,45898
2,80646	0,46387
2,81656	0,46875
2,82665	0,46387
2,83675	0,46387
2,84684	0,46387
2,85694	0,45898
2,86703	0,46387
2,87713	0,46387
2,88722	0,46387
2,89732	0,46387
2,90741	0,46387
2,91751	0,46387
2,92760	0,46387
2,93770	0,46875
2,94779	0,46387
2,95789	0,46387
2,96798	0,46387
2,97808	0,46875
2,98817	0,46387
2,99827	0,46875
3,00836	0,46387
3,01846	0,46387
3,02855	0,46387
3,03865	0,46387
3,04874	0,46875
3,05884	0,46387
3,06893	0,45898
3,07903	0,46875
3,08913	0,46387
3,09922	0,46387
3,10932	0,46387
3,11941	0,45898
3,12951	0,46387
3,13960	0,46387
3,14970	0,46387
3,15979	0,46387
3,16989	0,46387
3,17998	0,47363
3,19008	0,46387
3,20017	0,46875
3,21027	0,46387
3,22036	0,46387
3,23046	0,46875
3,24055	0,46875
3,25065	0,46387
3,26074	0,46387
3,27084	0,46387
3,28093	0,45898
3,29103	0,45898
3,30112	0,46387
3,31122	0,46387
3,32131	0,46387
3,33141	0,46387
3,34150	0,45898
3,35160	0,46387
3,36170	0,47363
3,37179	0,46387
3,38189	0,46387
3,39198	0,46387
3,40208	0,46875
3,41217	0,46387
3,42227	0,46387
3,43236	0,46387
3,44246	0,46387
3,45255	0,46387
3,46265	0,46387
3,47274	0,46387
3,48284	0,46387
3,49293	0,46875
3,50303	0,45898
3,51312	0,46875
3,52322	0,46387
3,53331	0,46875
3,54341	0,46387
3,55350	0,46387
3,56360	0,46875
3,57369	0,46875
3,58379	0,46387
3,59388	0,46387
3,60398	0,46387
3,61407	0,46387
3,62417	0,46387
3,63427	0,46387
3,64436	0,46875
3,65446	0,46875
3,66455	0,46387
3,67465	0,46875
3,68474	0,46387
3,69484	0,46875
3,70493	0,46387
3,71503	0,45898
3,72512	0,46875
3,73522	0,46387
3,74531	0,46387
3,75541	0,46875
3,76550	0,45410
3,77560	0,47852
3,78569	0,47363
3,79579	0,46387
3,80588	0,46387
3,81598	0,46387
3,82607	0,45898
3,83617	0,45898
3,84626	0,46387
3,85636	0,46387
3,86645	0,45898
3,87655	0,47363
3,88664	0,46387
3,89674	0,46387
3,90684	0,46875
3,91693	0,45898
3,92703	0,46875
3,93712	0,46875
3,94722	0,46875
3,95731	0,46387
3,96741	0,46387
3,97750	0,46875
3,98760	0,46387
3,99769	0,46387
4,00779	0,46875
4,01788	0,46387
4,02798	0,46875
4,03807	0,46387
4,04817	0,46387
4,05826	0,46875
4,06836	0,46387
4,07845	0,46875
4,08855	0,46875
4,09864	0,46875
4,10874	0,46387
4,11883	0,45898
4,12893	0,47363
4,13902	0,46387
4,14912	0,46387
4,15921	0,46387
4,16931	0,46387
4,17940	0,46387
4,18950	0,46875
4,19960	0,46387
4,20969	0,46387
4,21979	0,46387
4,22988	0,46387
4,23998	0,45898
4,25007	0,46387
4,26017	0,45898
4,27026	0,46875
4,28036	0,46387
4,29045	0,46387
4,30055	0,46875
4,31064	0,46387
4,32074	0,46875
4,33083	0,46875
4,34093	0,46387
4,35102	0,47363
4,36112	0,46387
4,37121	0,46875
4,38131	0,46387
4,39140	0,46387
4,40150	0,47363
4,41159	0,46387
4,42169	0,46387
4,43178	0,46387
4,44188	0,46875
4,45197	0,46387
4,46207	0,45898
4,47217	0,46875
4,48226	0,46387
4,49236	0,46387
4,50245	0,46875
4,51255	0,46387
4,52264	0,46875
4,53274	0,47363
4,54283	0,46387
4,55293	0,46875
4,56302	0,45898
4,57312	0,46875
4,58321	0,46387
4,59331	0,45898
4,60340	0,47363
4,61350	0,46387
4,62359	0,46875
4,63369	0,46387
4,64378	0,45898
4,65388	0,46387
4,66397	0,45898
4,67407	0,46387
4,68416	0,45898
4,69426	0,46387
4,70435	0,46387
4,71445	0,46875
4,72454	0,46387
4,73464	0,46387
4,74474	0,46875
4,75483	0,46387
4,76493	0,46875
4,77502	0,45898
4,78512	0,46387
4,79521	0,46387
4,80531	0,46875
4,81540	0,46387
4,82550	0,46387
4,83559	0,45410
4,84569	0,46875
4,85578	0,46875
4,86588	0,47363
4,87597	0,46387
4,88607	0,46387
4,89616	0,46387
4,90626	0,46875
4,91635	0,46387
4,92645	0,45410
4,93654	0,47363
4,94664	0,46387
4,95673	0,46875
4,96683	0,46387
4,97692	0,45898
4,98702	0,46387
4,99711	0,46387
5,00721	0,46875
5,01730	0,46875
5,02740	0,46387
5,03750	0,45410
5,04759	0,46875
5,05769	0,46387
5,06778	0,46387
5,07788	0,45410
5,08797	0,46875
5,09807	0,47852
5,10816	0,46387
5,11826	0,46387
5,12835	0,46387
5,13845	0,46387
5,14854	0,46387
5,15864	0,45898
5,16873	0,46387
5,17883	0,46387
5,18892	0,46387
5,19902	0,46387
5,20911	0,46387
5,21921	0,46875
5,22930	0,46387
5,23940	0,46387
5,24949	0,47363
5,25959	0,45898
5,26968	0,46875
5,27978	0,46387
5,28987	0,45898
5,29997	0,46875
5,31007	0,46875
5,32016	0,46387
5,33026	0,46875
5,34035	0,45898
5,35045	0,46387
5,36054	0,46387
5,37064	0,45410
5,38073	0,46875
5,39083	0,46875
5,40092	0,46387
5,41102	0,46387
5,42111	0,46387
5,43121	0,46875
5,44130	0,46387
5,45140	0,46387
5,46149	0,46387
5,47159	0,46387
5,48168	0,46387
5,49178	0,46387
5,50187	0,46387
5,51197	0,46387
5,52206	0,46387
5,53216	0,46875
5,54225	0,46387
5,55235	0,45898
5,56244	0,46875
5,57254	0,46875
5,58264	0,45898
5,59273	0,46875
5,60283	0,45898
5,61292	0,46875
5,62302	0,46387
5,63311	0,46387
5,64321	0,46387
5,65330	0,46387
5,66340	0,46387
5,67349	0,47363
5,68359	0,45898
5,69368	0,46387
5,70378	0,45898
5,71387	0,46875
5,72397	0,46387
5,73406	0,47363
5,74416	0,46387
5,75425	0,46387
5,76435	0,46387
5,77444	0,46387
5,78454	0,46387
5,79463	0,46387
5,80473	0,46387
5,81482	0,46387
5,82492	0,46387
5,83501	0,46875
5,84511	0,46387
5,85520	0,46387
5,86530	0,46875
5,87540	0,45898
5,88549	0,46387
5,89559	0,46875
5,90568	0,45898
5,91578	0,46875
5,92587	0,46387
5,93597	0,45898
5,94606	0,46387
5,95616	0,46387
5,96625	0,46387
5,97635	0,46387
5,98644	0,45898
5,99654	0,46387
6,00663	0,46387
6,01673	0,46387
6,02682	0,46875
6,03692	0,45898
6,04701	0,46875
6,05711	0,45898
6,06720	0,46875
6,07730	0,46875
6,08739	0,45898
6,09749	0,46387
6,10758	0,45898
6,11768	0,46387
6,12777	0,46875
6,13787	0,45410
6,14797	0,46875
6,15806	0,46387
6,16816	0,45898
6,17825	0,46875
6,18835	0,45898
6,19844	0,46387
6,20854	0,46875
6,21863	0,45898
6,22873	0,47363
6,23882	0,45898
6,24892	0,47363
6,25901	0,46387
6,26911	0,45410
6,27920	0,46387
6,28930	0,46387
6,29939	0,45898
6,30949	0,46875
6,31958	0,45898
6,32968	0,46875
6,33977	0,47363
6,34987	0,45898
6,35996	0,46387
6,37006	0,46387
6,38015	0,46387
6,39025	0,46387
6,40034	0,46875
6,41044	0,46387
6,42054	0,46387
6,43063	0,46387
6,44073	0,46387
6,45082	0,46875
6,46092	0,46387
6,47101	0,46387
6,48111	0,46387
6,49120	0,46875
6,50130	0,46875
6,51139	0,46387
6,52149	0,46387
6,53158	0,45898
6,54168	0,46875
6,55177	0,46875
6,56187	0,46387
6,57196	0,46875
6,58206	0,45898
6,59215	0,46875
6,60225	0,46387
6,61234	0,46875
6,62244	0,46387
6,63253	0,46387
6,64263	0,47363
6,65272	0,46875
6,66282	0,46387
6,67291	0,46387
6,68301	0,45898
6,69310	0,46387
6,70320	0,46875
6,71330	0,46875
6,72339	0,46387
6,73349	0,46875
6,74358	0,46387
6,75368	0,46387
6,76377	0,47852
6,77387	0,45898
6,78396	0,46387
6,79406	0,46387
6,80415	0,47363
6,81425	0,46387
6,82434	0,46387
6,83444	0,46387
6,84453	0,46387
6,85463	0,45898
6,86472	0,46387
6,87482	0,46875
6,88491	0,46387
6,89501	0,46387
6,90510	0,46387
6,91520	0,46387
6,92529	0,46875
6,93539	0,46387
6,94548	0,45898
6,95558	0,46875
6,96567	0,46387
6,97577	0,46875
6,98587	0,46875
6,99596	0,46387
7,00606	0,46875
7,01615	0,46387
7,02625	0,46387
7,03634	0,46387
7,04644	0,46387
7,05653	0,46387
7,06663	0,45898
7,07672	0,46387
7,08682	0,46387
7,09691	0,46387
7,10701	0,46387
7,11710	0,46387
7,12720	0,46387
7,13729	0,46387
7,14739	0,46387
7,15748	0,46387
7,16758	0,46387
7,17767	0,46875
7,18777	0,46387
7,19786	0,46387
7,20796	0,46387
7,21805	0,46387
7,22815	0,45898
7,23824	0,46875
7,24834	0,46387
7,25844	0,46387
7,26853	0,46875
7,27863	0,47363
7,28872	0,46387
7,29882	0,46387
7,30891	0,46387
7,31901	0,46387
7,32910	0,46387
7,33920	0,46875
7,34929	0,45898
7,35939	0,45898
7,36948	0,46875
7,37958	0,45898
7,38967	0,45898
7,39977	0,46387
7,40986	0,46387
7,41996	0,46387
7,43005	0,46387
7,44015	0,46387
7,45024	0,46875
7,46034	0,46387
7,47043	0,46875
7,48053	0,46875
7,49062	0,46387
7,50072	0,46387
7,51081	0,46387
7,52091	0,46387
7,53100	0,45898
7,54110	0,45898
7,55120	0,45898
7,56129	0,46875
7,57139	0,47363
7,58148	0,46875
7,59158	0,46387
7,60167	0,46875
7,61177	0,45898
7,62186	0,46387
7,63196	0,46875
7,64205	0,45898
7,65215	0,46387
7,66224	0,45898
7,67234	0,46387
7,68243	0,45410
7,69253	0,45898
7,70262	0,46387
7,71272	0,46387
7,72281	0,46387
7,73291	0,46875
7,74300	0,46387
7,75310	0,45898
7,76319	0,46387
7,77329	0,45898
7,78338	0,46875
7,79348	0,45898
7,80357	0,46875
7,81367	0,46387
7,82377	0,46387
7,83386	0,46875
7,84396	0,46387
7,85405	0,46875
7,86415	0,46387
7,87424	0,46387
7,88434	0,45898
7,89443	0,46387
7,90453	0,46387
7,91462	0,46387
7,92472	0,46387
7,93481	0,46387
7,94491	0,46387
7,95500	0,46387
7,96510	0,46387
7,97519	0,46875
7,98529	0,46875
7,99538	0,46875
8,00548	0,46387
8,01557	0,46875
8,02567	0,46387
8,03576	0,46387
8,04586	0,46875
8,05595	0,45898
8,06605	0,46387
8,07614	0,46387
8,08624	0,45898
8,09634	0,46387
8,10643	0,46387
8,11653	0,46875
8,12662	0,46387
8,13672	0,46387
8,14681	0,46387
8,15691	0,46387
8,16700	0,46387
8,17710	0,46875
8,18719	0,45898
8,19729	0,46875
8,20738	0,46387
8,21748	0,46387
8,22757	0,46875
8,23767	0,46387
8,24776	0,46387
8,25786	0,46875
8,26795	0,46387
8,27805	0,46387
8,28814	0,46387
8,29824	0,46387
8,30833	0,46875
8,31843	0,46875
8,32852	0,46387
8,33862	0,46875
8,34871	0,46387
8,35881	0,46387
8,36890	0,46387
8,37900	0,47852
8,38910	0,46387
8,39919	0,46387
8,40929	0,46387
8,41938	0,46387
8,42948	0,47363
8,43957	0,46875
8,44967	0,46387
8,45976	0,46387
8,46986	0,46387
8,47995	0,46387
8,49005	0,46875
8,50014	0,46387
8,51024	0,46875
8,52033	0,46387
8,53043	0,46387
8,54052	0,46387
8,55062	0,45898
8,56071	0,46875
8,57081	0,45898
8,58090	0,46387
8,59100	0,46387
8,60109	0,46387
8,61119	0,47363
8,62128	0,47363
8,63138	0,46387
8,64147	0,47363
8,65157	0,46387
8,66167	0,46875
8,67176	0,46387
8,68186	0,46387
8,69195	0,46875
8,70205	0,45410
8,71214	0,46875
8,72224	0,46387
8,73233	0,46387
8,74243	0,46875
8,75252	0,46387
8,76262	0,46387
8,77271	0,46387
8,78281	0,46387
8,79290	0,46387
8,80300	0,46875
8,81309	0,46387
8,82319	0,46387
8,83328	0,46387
8,84338	0,46387
8,85347	0,46387
8,86357	0,46387
8,87366	0,46875
8,88376	0,45898
8,89385	0,46875
8,90395	0,46875
8,91404	0,46387
8,92414	0,46387
8,93424	0,46387
8,94433	0,46387
8,95443	0,46387
8,96452	0,45898
8,97462	0,46387
8,98471	0,46387
8,99481	0,46875
9,00490	0,46387
9,01500	0,46875
9,02509	0,45898
9,03519	0,46387
9,04528	0,47363
9,05538	0,46387
9,06547	0,46387
9,07557	0,46387
9,08566	0,46387
9,09576	0,46387
9,10585	0,46387
9,11595	0,46875
9,12604	0,46875
9,13614	0,46875
9,14623	0,46387
9,15633	0,46387
9,16642	0,46387
9,17652	0,46387
9,18661	0,46875
9,19671	0,46387
9,20680	0,46387
9,21690	0,45898
9,22700	0,45410
9,23709	0,45898
9,24719	0,46387
9,25728	0,46875
9,26738	0,46875
9,27747	0,45410
9,28757	0,47852
9,29766	0,46387
9,30776	0,46387
9,31785	0,46387
9,32795	0,46875
9,33804	0,46387
9,34814	0,46387
9,35823	0,46875
9,36833	0,46387
9,37842	0,45898
9,38852	0,46875
9,39861	0,45898
9,40871	0,46875
9,41880	0,45898
9,42890	0,46387
9,43899	0,46875
9,44909	0,45898
9,45918	0,46387
9,46928	0,46387
9,47937	0,46387
9,48947	0,46387
9,49957	0,46387
9,50966	0,46387
9,51976	0,46387
9,52985	0,46387
9,53995	0,46875
9,55004	0,46387
9,56014	0,45898
9,57023	0,46387
9,58033	0,46387
9,59042	0,46387
9,60052	0,46387
9,61061	0,46387
9,62071	0,46387
9,63080	0,46387
9,64090	0,45898
9,65099	0,46387
9,66109	0,46875
9,67118	0,46875
9,68128	0,45898
9,69137	0,46387
9,70147	0,46875
9,71156	0,46387
9,72166	0,46875
9,73175	0,46387
9,74185	0,46387
9,75194	0,46387
9,76204	0,46387
9,77214	0,46875
9,78223	0,45410
9,79233	0,46387
9,80242	0,46387
9,81252	0,46387
9,82261	0,46387
9,83271	0,46387
9,84280	0,46387
9,85290	0,46875
9,86299	0,46387
9,87309	0,46387
9,88318	0,46387
9,89328	0,46387
9,90337	0,46387
9,91347	0,46875
9,92356	0,46875
9,93366	0,46387
9,94375	0,46875
9,95385	0,46387
9,96394	0,46387
9,97404	0,46387
9,98413	0,46387
9,99423	0,46387
10,00432	0,46387
10,01442	0,46387
10,02451	0,46387
10,03461	0,46387
10,04470	0,46387
10,05480	0,47363
10,06490	0,45898
10,07499	0,46387
10,08509	0,46387
10,09518	0,46875
10,10528	0,46387
10,11537	0,46387
10,12547	0,46387
10,13556	0,46875
10,14566	0,45410
10,15575	0,45898
10,16585	0,46875
10,17594	0,45898
10,18604	0,46387
10,19613	0,47363
10,20623	0,46875
10,21632	0,46875
10,22642	0,45898
10,23651	0,46875
10,24661	0,46387
10,25670	0,45898
10,26680	0,46387
10,27689	0,45898
10,28699	0,47852
10,29708	0,46875
10,30718	0,46387
10,31727	0,46875
10,32737	0,46387
10,33747	0,45410
10,34756	0,46875
10,35766	0,46875
10,36775	0,46875
10,37785	0,46875
10,38794	0,46387
10,39804	0,46875
10,40813	0,46387
10,41823	0,46387
10,42832	0,46387
10,43842	0,46387
10,44851	0,46875
10,45861	0,45898
10,46870	0,46387
10,47880	0,46387
10,48889	0,46387
10,49899	0,46387
10,50908	0,46875
10,51918	0,45898
10,52927	0,46387
10,53937	0,45898
10,54946	0,46387
10,55956	0,46387
10,56965	0,46387
10,57975	0,46387
10,58984	0,46387
10,59994	0,45898
10,61004	0,46875
10,62013	0,46387
10,63023	0,46387
10,64032	0,46387
10,65042	0,46875
10,66051	0,46875
10,67061	0,45410
10,68070	0,46875
10,69080	0,45410
10,70089	0,46875
10,71099	0,46387
10,72108	0,46875
10,73118	0,46875
10,74127	0,46387
10,75137	0,46387
10,76146	0,46875
10,77156	0,46387
10,78165	0,46387
10,79175	0,46387
10,80184	0,46875
10,81194	0,46387
10,82203	0,46387
10,83213	0,46387
10,84222	0,46387
10,85232	0,46387
10,86241	0,46387
10,87251	0,47363
10,88261	0,46387
10,89270	0,46387
10,90280	0,45410
10,91289	0,46387
10,92299	0,47363
10,93308	0,45898
10,94318	0,46387
10,95327	0,45898
10,96337	0,46387
10,97346	0,46875
10,98356	0,46387
10,99365	0,46387
11,00375	0,46387
11,01384	0,46875
11,02394	0,46387
11,03403	0,46387
11,04413	0,46387
11,05422	0,45410
11,06432	0,46387
11,07441	0,46875
11,08451	0,46387
11,09460	0,46875
11,10470	0,46387
11,11479	0,46387
11,12489	0,46387
11,13498	0,45898
11,14508	0,46387
11,15517	0,46387
11,16527	0,46387
11,17537	0,46875
11,18546	0,47363
11,19556	0,47363
11,20565	0,45898
11,21575	0,46387
11,22584	0,46387
11,23594	0,46875
11,24603	0,46875
11,25613	0,46387
11,26622	0,46387
11,27632	0,46387
11,28641	0,46387
11,29651	0,45898
11,30660	0,46875
11,31670	0,46875
11,32679	0,45898
11,33689	0,46387
11,34698	0,46387
11,35708	0,46875
11,36717	0,46387
11,37727	0,46875
11,38736	0,46387
11,39746	0,46387
11,40755	0,46387
11,41765	0,46387
11,42774	0,46387
11,43784	0,46387
11,44794	0,45898
11,45803	0,46387
11,46813	0,45898
11,47822	0,46387
11,48832	0,46875
11,49841	0,45410
11,50851	0,46875
11,51860	0,45898
11,52870	0,46875
11,53879	0,45898
11,54889	0,46387
11,55898	0,46875
11,56908	0,46387
11,57917	0,46387
11,58927	0,46387
11,59936	0,46387
11,60946	0,46387
11,61955	0,46875
11,62965	0,46387
11,63974	0,46387
11,64984	0,46387
11,65993	0,45898
11,67003	0,46875
11,68012	0,46387
11,69022	0,46387
11,70031	0,45898
11,71041	0,45898
11,72051	0,46387
11,73060	0,46875
11,74070	0,46875
11,75079	0,45898
11,76089	0,46875
11,77098	0,46875
11,78108	0,45898
11,79117	0,46875
11,80127	0,46387
11,81136	0,46387
11,82146	0,46875
11,83155	0,45898
11,84165	0,46875
11,85174	0,46387
11,86184	0,45898
11,87193	0,46875
11,88203	0,45410
11,89212	0,46875
11,90222	0,46875
11,91231	0,46387
11,92241	0,46875
11,93250	0,46387
11,94260	0,46875
11,95269	0,46387
11,96279	0,46387
11,97288	0,46875
11,98298	0,46387
11,99307	0,46387
12,00317	0,46387
12,01327	0,46387
12,02336	0,46875
12,03346	0,46875
12,04355	0,46387
12,05365	0,47363
12,06374	0,46387
12,07384	0,46387
12,08393	0,46387
12,09403	0,46387
12,10412	0,46875
12,11422	0,46387
12,12431	0,46387
12,13441	0,46387
12,14450	0,46387
12,15460	0,46387
12,16469	0,46875
12,17479	0,46387
12,18488	0,46875
12,19498	0,46387
12,20507	0,46387
12,21517	0,46387
12,22526	0,46387
12,23536	0,46387
12,24545	0,46387
12,25555	0,45898
12,26564	0,47363
12,27574	0,45898
12,28584	0,46875
12,29593	0,46875
12,30603	0,46875
12,31612	0,46387
12,32622	0,46875
12,33631	0,46875
12,34641	0,46875
12,35650	0,46875
12,36660	0,46387
12,37669	0,45898
12,38679	0,46875
12,39688	0,45898
12,40698	0,46387
12,41707	0,47363
12,42717	0,46875
12,43726	0,46875
12,44736	0,46875
12,45745	0,45898
12,46755	0,46875
12,47764	0,45898
12,48774	0,46875
12,49783	0,46387
12,50793	0,46387
12,51802	0,46875
12,52812	0,46387
12,53821	0,46387
12,54831	0,46387
12,55841	0,46387
12,56850	0,46387
12,57860	0,46387
12,58869	0,46875
12,59879	0,46387
12,60888	0,45898
12,61898	0,46875
12,62907	0,46387
12,63917	0,46387
12,64926	0,46387
12,65936	0,46387
12,66945	0,46387
12,67955	0,46387
12,68964	0,46387
12,69974	0,46387
12,70983	0,46387
12,71993	0,46387
12,73002	0,46387
12,74012	0,46875
12,75021	0,45898
12,76031	0,46387
12,77040	0,46387
12,78050	0,46387
12,79059	0,46387
12,80069	0,46875
12,81078	0,46387
12,82088	0,46875
12,83097	0,46387
12,84107	0,45898
12,85117	0,46875
12,86126	0,46875
12,87136	0,45898
12,88145	0,46875
12,89155	0,45898
12,90164	0,46875
12,91174	0,46875
12,92183	0,46875
12,93193	0,46875
12,94202	0,45898
12,95212	0,46875
12,96221	0,46875
12,97231	0,46387
12,98240	0,46387
12,99250	0,46387
13,00259	0,46875
13,01269	0,46875
13,02278	0,46387
13,03288	0,46875
13,04297	0,46387
13,05307	0,46387
13,06316	0,46387
13,07326	0,45410
13,08335	0,46387
13,09345	0,46387
13,10354	0,46387
13,11364	0,46875
13,12374	0,46387
13,13383	0,46875
13,14393	0,46875
13,15402	0,45898
13,16412	0,46875
13,17421	0,46387
13,18431	0,46875
13,19440	0,46875
13,20450	0,45410
13,21459	0,46875
13,22469	0,46875
13,23478	0,45898
13,24488	0,46875
13,25497	0,45898
13,26507	0,46875
13,27516	0,46875
13,28526	0,46387
13,29535	0,46387
13,30545	0,46387
13,31554	0,45410
13,32564	0,46387
13,33573	0,47363
13,34583	0,46387
13,35592	0,46387
13,36602	0,46875
13,37611	0,46387
13,38621	0,46387
13,39631	0,46875
13,40640	0,46387
13,41650	0,46387
13,42659	0,45898
13,43669	0,45898
13,44678	0,46387
13,45688	0,46387
13,46697	0,46387
13,47707	0,46875
13,48716	0,46387
13,49726	0,45410
13,50735	0,46387
13,51745	0,46387
13,52754	0,46387
13,53764	0,45898
13,54773	0,46387
13,55783	0,46387
13,56792	0,46875
13,57802	0,46387
13,58811	0,45898
13,59821	0,46875
13,60830	0,46387
13,61840	0,46387
13,62849	0,46387
13,63859	0,46387
13,64868	0,45410
13,65878	0,46875
13,66887	0,46387
13,67897	0,46387
13,68907	0,46387
13,69916	0,46387
13,70926	0,46875
13,71935	0,45410
13,72945	0,45898
13,73954	0,46387
13,74964	0,46387
13,75973	0,46387
13,76983	0,46387
13,77992	0,46875
13,79002	0,46387
13,80011	0,45898
13,81021	0,46875
13,82030	0,46387
13,83040	0,45898
13,84049	0,46875
13,85059	0,46387
13,86068	0,46875
13,87078	0,46387
13,88087	0,46387
13,89097	0,45410
13,90106	0,46387
13,91116	0,46387
13,92125	0,46387
13,93135	0,46387
13,94144	0,46875
13,95154	0,46387
13,96164	0,46875
13,97173	0,46387
13,98183	0,46387
13,99192	0,46387
14,00202	0,45898
14,01211	0,45898
14,02221	0,46875
14,03230	0,46387
14,04240	0,46387
14,05249	0,45898
14,06259	0,47363
14,07268	0,45898
14,08278	0,47363
14,09287	0,46387
14,10297	0,46387
14,11306	0,46875
14,12316	0,46387
14,13325	0,46875
14,14335	0,46387
14,15344	0,46387
14,16354	0,46387
14,17363	0,46387
14,18373	0,46387
14,19382	0,46875
14,20392	0,46875
14,21401	0,45898
14,22411	0,46875
14,23421	0,45898
14,24430	0,46387
14,25440	0,46875
14,26449	0,46387
14,27459	0,45410
14,28468	0,46387
14,29478	0,46387
14,30487	0,47363
14,31497	0,46387
14,32506	0,46387
14,33516	0,46875
14,34525	0,46387
14,35535	0,46875
14,36544	0,46387
14,37554	0,46875
14,38563	0,46387
14,39573	0,46387
14,40582	0,46387
14,41592	0,46387
14,42601	0,46387
14,43611	0,46875
14,44620	0,45898
14,45630	0,46875
14,46639	0,46387
14,47649	0,46387
14,48658	0,46387
14,49668	0,46387
14,50677	0,46875
14,51687	0,47363
14,52697	0,46387
14,53706	0,46875
14,54716	0,46875
14,55725	0,46875
14,56735	0,46875
14,57744	0,46387
14,58754	0,46387
14,59763	0,46387
14,60773	0,46387
14,61782	0,46875
14,62792	0,46387
14,63801	0,46875
14,64811	0,46387
14,65820	0,46387
14,66830	0,46875
14,67839	0,45898
14,68849	0,46387
14,69858	0,46387
14,70868	0,46387
14,71877	0,46875
14,72887	0,46387
14,73896	0,46387
14,74906	0,46875
14,75915	0,46387
14,76925	0,46387
14,77934	0,46387
14,78944	0,46875
14,79954	0,46875
14,80963	0,46387
14,81973	0,46387
14,82982	0,46387
14,83992	0,46875
14,85001	0,46387
14,86011	0,46387
14,87020	0,46875
14,88030	0,46387
14,89039	0,45898
14,90049	0,46387
14,91058	0,46387
14,92068	0,46387
14,93077	0,46387
14,94087	0,46387
14,95096	0,46387
14,96106	0,46387
14,97115	0,46387
14,98125	0,46387
14,99134	0,46387
15,00144	0,46387
15,01153	0,45898
15,02163	0,46387
15,03172	0,46875
15,04182	0,47363
15,05191	0,46875
15,06201	0,45898
15,07211	0,46875
15,08220	0,46875
15,09230	0,46387
15,10239	0,46387
15,11249	0,46387
15,12258	0,46875
15,13268	0,46387
15,14277	0,46387
15,15287	0,46875
15,16296	0,46875
15,17306	0,46387
15,18315	0,46875
15,19325	0,46387
15,20334	0,46387
15,21344	0,46387
15,22353	0,46387
15,23363	0,46875
15,24372	0,46387
15,25382	0,46875
15,26391	0,46875
15,27401	0,46387
15,28410	0,46387
15,29420	0,46875
15,30429	0,47363
15,31439	0,46387
15,32448	0,46875
15,33458	0,46875
15,34467	0,46875
15,35477	0,46387
15,36487	0,46875
15,37496	0,46387
15,38506	0,46387
15,39515	0,46387
15,40525	0,45898
15,41534	0,46387
15,42544	0,46387
15,43553	0,46875
15,44563	0,46387
15,45572	0,46387
15,46582	0,46875
15,47591	0,45898
15,48601	0,46387
15,49610	0,46875
15,50620	0,46387
15,51629	0,46875
15,52639	0,46387
15,53648	0,46875
15,54658	0,46875
15,55667	0,45898
15,56677	0,47852
15,57686	0,45898
15,58696	0,46387
15,59705	0,46387
15,60715	0,46387
15,61724	0,46387
15,62734	0,46875
15,63744	0,46387
15,64753	0,46387
15,65763	0,46387
15,66772	0,45898
15,67782	0,46387
15,68791	0,46387
15,69801	0,46387
15,70810	0,46387
15,71820	0,46387
15,72829	0,47363
15,73839	0,45410
15,74848	0,46387
15,75858	0,46387
15,76867	0,46387
15,77877	0,46387
15,78886	0,45898
15,79896	0,45898
15,80905	0,46387
15,81915	0,46875
15,82924	0,46387
15,83934	0,46875
15,84943	0,46387
15,85953	0,46387
15,86962	0,46387
15,87972	0,46387
15,88981	0,46875
15,89991	0,46875
15,91001	0,46875
15,92010	0,46387
15,93020	0,46875
15,94029	0,45898
15,95039	0,46387
15,96048	0,46387
15,97058	0,46387
15,98067	0,47363
15,99077	0,46387
16,00086	0,45410
16,01096	0,46387
16,02105	0,46387
16,03115	0,46387
16,04124	0,46387
16,05134	0,46387
16,06143	0,46875
16,07153	0,45898
16,08162	0,46387
16,09172	0,46387
16,10181	0,46875
16,11191	0,46387
16,12200	0,45898
16,13210	0,46387
16,14219	0,46387
16,15229	0,46387
16,16238	0,46875
16,17248	0,46387
16,18257	0,46875
16,19267	0,46875
16,20277	0,45898
16,21286	0,46875
16,22296	0,46387
16,23305	0,46387
16,24315	0,46387
16,25324	0,46875
16,26334	0,46875
16,27343	0,46387
16,28353	0,45898
16,29362	0,46387
16,30372	0,45898
16,31381	0,46387
16,32391	0,46387
16,33400	0,47363
16,34410	0,46875
16,35419	0,46387
16,36429	0,46875
16,37438	0,46387
16,38448	0,45898
16,39457	0,45898
16,40467	0,46387
16,41476	0,46387
16,42486	0,46875
16,43495	0,46387
16,44505	0,46387
16,45514	0,45410
16,46524	0,46387
16,47534	0,46387
16,48543	0,46387
16,49553	0,45898
16,50562	0,46387
16,51572	0,46387
16,52581	0,46875
16,53591	0,45898
16,54600	0,47363
16,55610	0,46387
16,56619	0,46387
16,57629	0,47363
16,58638	0,46387
16,59648	0,46387
16,60657	0,46875
16,61667	0,46387
16,62676	0,46875
16,63686	0,46387
16,64695	0,46387
16,65705	0,46875
16,66714	0,45410
16,67724	0,46875
16,68733	0,46387
16,69743	0,46387
16,70752	0,46875
16,71762	0,46387
16,72771	0,46875
16,73781	0,46875
16,74791	0,45898
16,75800	0,46387
16,76810	0,46387
16,77819	0,46387
16,78829	0,46875
16,79838	0,46387
16,80848	0,46387
16,81857	0,46387
16,82867	0,46387
16,83876	0,46387
16,84886	0,46387
16,85895	0,46387
16,86905	0,46387
16,87914	0,46387
16,88924	0,46875
16,89933	0,45898
16,90943	0,46387
16,91952	0,45898
16,92962	0,46387
16,93971	0,46875
16,94981	0,46387
16,95990	0,46387
16,97000	0,46387
16,98009	0,46387
16,99019	0,46875
17,00028	0,46387
17,01038	0,46875
17,02047	0,46875
17,03057	0,45898
17,04067	0,46875
17,05076	0,46387
17,06086	0,46875
17,07095	0,46387
17,08105	0,46387
17,09114	0,46387
17,10124	0,46387
17,11133	0,45410
17,12143	0,46387
17,13152	0,46387
17,14162	0,46387
17,15171	0,46387
17,16181	0,46387
17,17190	0,46387
17,18200	0,46387
17,19209	0,46387
17,20219	0,46875
17,21228	0,46387
17,22238	0,46387
17,23247	0,46875
17,24257	0,46387
17,25266	0,46875
17,26276	0,45410
17,27285	0,46387
17,28295	0,46387
17,29304	0,46387
17,30314	0,46875
17,31324	0,46387
17,32333	0,46875
17,33343	0,46875
17,34352	0,46387
17,35362	0,46875
17,36371	0,45898
17,37381	0,46875
17,38390	0,46387
17,39400	0,46387
17,40409	0,47363
17,41419	0,46387
17,42428	0,46387
17,43438	0,46875
17,44447	0,46387
17,45457	0,46875
17,46466	0,46387
17,47476	0,46875
17,48485	0,46387
17,49495	0,46387
17,50504	0,46387
17,51514	0,46875
17,52523	0,46387
17,53533	0,46875
17,54542	0,46387
17,55552	0,46875
17,56561	0,46387
17,57571	0,46875
17,58581	0,47363
17,59590	0,46387
17,60600	0,46875
17,61609	0,46387
17,62619	0,45410
17,63628	0,46875
17,64638	0,46875
17,65647	0,46387
17,66657	0,46875
17,67666	0,45898
17,68676	0,46875
17,69685	0,45898
17,70695	0,46387
17,71704	0,46387
17,72714	0,46387
17,73723	0,46387
17,74733	0,45898
17,75742	0,45898
17,76752	0,46875
17,77761	0,46387
17,78771	0,46387
17,79780	0,46875
17,80790	0,46387
17,81799	0,46875
17,82809	0,45898
17,83818	0,46875
17,84828	0,46387
17,85837	0,46875
17,86847	0,46387
17,87857	0,46387
17,88866	0,46387
17,89876	0,46387
17,90885	0,46387
17,91895	0,46387
17,92904	0,46387
17,93914	0,46387
17,94923	0,46387
17,95933	0,46387
17,96942	0,46387
17,97952	0,46875
17,98961	0,45898
17,99971	0,46875
18,00980	0,45410
18,01990	0,47363
18,02999	0,47363
18,04009	0,46387
18,05018	0,46875
18,06028	0,46387
18,07037	0,45898
18,08047	0,46387
18,09056	0,46875
18,10066	0,46387
18,11075	0,46387
18,12085	0,47363
18,13094	0,46875
18,14104	0,46387
18,15114	0,46875
18,16123	0,46387
18,17133	0,46387
18,18142	0,46387
18,19152	0,46387
18,20161	0,46387
18,21171	0,46387
18,22180	0,46387
18,23190	0,47363
18,24199	0,45898
18,25209	0,46875
18,26218	0,46875
18,27228	0,46875
18,28237	0,46387
18,29247	0,46387
18,30256	0,46875
18,31266	0,46875
18,32275	0,46387
18,33285	0,46875
18,34294	0,46387
18,35304	0,45898
18,36313	0,46387
18,37323	0,46387
18,38332	0,46387
18,39342	0,46875
18,40351	0,46387
18,41361	0,46387
18,42371	0,46387
18,43380	0,46875
18,44390	0,47363
18,45399	0,46387
18,46409	0,45410
18,47418	0,46875
18,48428	0,46875
18,49437	0,46875
18,50447	0,47363
18,51456	0,46875
18,52466	0,46387
18,53475	0,46387
18,54485	0,46875
18,55494	0,46387
18,56504	0,46387
18,57513	0,46387
18,58523	0,46387
18,59532	0,46387
18,60542	0,46875
18,61551	0,46875
18,62561	0,46387
18,63570	0,46387
18,64580	0,46875
18,65589	0,46387
18,66599	0,46387
18,67608	0,46875
18,68618	0,46387
18,69628	0,46875
18,70637	0,46387
18,71647	0,46875
18,72656	0,46875
18,73666	0,45898
18,74675	0,46875
18,75685	0,46387
18,76694	0,46387
18,77704	0,46387
18,78713	0,45898
18,79723	0,46387
18,80732	0,46875
18,81742	0,46387
18,82751	0,46387
18,83761	0,46387
18,84770	0,46387
18,85780	0,46875
18,86789	0,46875
18,87799	0,46875
18,88808	0,45898
18,89818	0,45898
18,90827	0,45898
18,91837	0,46387
18,92846	0,45410
18,93856	0,46387
18,94865	0,46875
18,95875	0,46875
18,96884	0,46387
18,97894	0,46387
18,98904	0,46387
18,99913	0,46387
19,00923	0,46875
19,01932	0,45898
19,02942	0,46875
19,03951	0,47363
19,04961	0,46387
19,05970	0,46875
19,06980	0,45898
19,07989	0,46387
19,08999	0,45898
19,10008	0,46387
19,11018	0,46875
19,12027	0,46387
19,13037	0,47363
19,14046	0,46387
19,15056	0,46387
19,16065	0,46875
19,17075	0,46387
19,18084	0,45898
19,19094	0,46875
19,20103	0,46387
19,21113	0,46387
19,22122	0,46387
19,23132	0,45898
19,24141	0,46875
19,25151	0,46387
19,26161	0,46387
19,27170	0,46387
19,28180	0,45898
19,29189	0,46387
19,30199	0,46387
19,31208	0,46387
19,32218	0,46875
19,33227	0,45898
19,34237	0,46387
19,35246	0,45410
19,36256	0,47363
19,37265	0,46387
19,38275	0,45898
19,39284	0,46387
19,40294	0,45898
19,41303	0,46387
19,42313	0,46875
19,43322	0,45410
19,44332	0,45898
19,45341	0,45898
19,46351	0,46387
19,47360	0,46387
19,48370	0,46387
19,49379	0,46875
19,50389	0,46387
19,51398	0,45898
19,52408	0,46387
19,53418	0,46387
19,54427	0,47363
19,55437	0,46875
19,56446	0,46387
19,57456	0,47363
19,58465	0,46387
19,59475	0,46387
19,60484	0,46387
19,61494	0,46387
19,62503	0,46875
19,63513	0,46387
19,64522	0,46387
19,65532	0,46387
19,66541	0,46387
19,67551	0,46875
19,68560	0,46387
19,69570	0,46875
19,70579	0,46875
19,71589	0,46387
19,72598	0,45898
19,73608	0,46387
19,74617	0,45898
19,75627	0,46875
19,76636	0,45410
19,77646	0,46387
19,78655	0,46387
19,79665	0,46387
19,80674	0,46875
19,81684	0,47363
19,82694	0,46875
19,83703	0,46875
19,84713	0,46875
19,85722	0,46875
19,86732	0,46875
19,87741	0,46387
19,88751	0,46387
19,89760	0,45898
19,90770	0,45898
19,91779	0,46387
19,92789	0,45898
19,93798	0,46875
19,94808	0,46387
19,95817	0,46875
19,96827	0,46387
19,97836	0,46387
19,98846	0,45898
19,99855	0,46875
20,00865	0,46387
20,01874	0,47363
20,02884	0,46387
20,03893	0,46875
20,04903	0,46875
20,05912	0,46387
20,06922	0,46875
20,07931	0,46875
20,08941	0,46387
20,09951	0,46875
20,10960	0,45898
20,11970	0,46875
20,12979	0,46387
20,13989	0,46387
20,14998	0,46387
20,16008	0,46387
20,17017	0,46387
20,18027	0,46387
20,19036	0,46387
20,20046	0,46387
20,21055	0,45410
20,22065	0,47363
20,23074	0,46875
20,24084	0,45898
20,25093	0,46387
20,26103	0,46387
20,27112	0,46387
20,28122	0,46387
20,29131	0,46387
20,30141	0,46387
20,31150	0,46387
20,32160	0,46875
20,33169	0,46387
20,34179	0,45898
20,35188	0,46875
20,36198	0,46387
20,37208	0,46387
20,38217	0,45898
20,39227	0,46387
20,40236	0,46387
20,41246	0,46387
20,42255	0,46387
20,43265	0,46875
20,44274	0,45898
20,45284	0,46387
20,46293	0,46387
20,47303	0,46387
20,48312	0,45410
20,49322	0,46387
20,50331	0,46387
20,51341	0,46875
20,52350	0,46387
20,53360	0,46387
20,54369	0,46387
20,55379	0,46875
20,56388	0,46387
20,57398	0,46387
20,58407	0,46875
20,59417	0,46387
20,60426	0,45898
20,61436	0,46387
20,62445	0,46387
20,63455	0,46387
20,64464	0,46387
20,65474	0,46387
20,66484	0,46387
20,67493	0,46387
20,68503	0,46387
20,69512	0,46387
20,70522	0,46387
20,71531	0,46875
20,72541	0,46875
20,73550	0,46387
20,74560	0,46387
20,75569	0,46387
20,76579	0,46387
20,77588	0,46875
20,78598	0,46875
20,79607	0,46387
20,80617	0,46387
20,81626	0,46387
20,82636	0,46387
20,83645	0,46387
20,84655	0,46875
20,85664	0,46875
20,86674	0,46387
20,87683	0,45898
20,88693	0,46875
20,89702	0,46387
20,90712	0,46387
20,91721	0,46875
20,92731	0,46387
20,93741	0,46387
20,94750	0,46875
20,95760	0,46387
20,96769	0,46387
20,97779	0,46875
20,98788	0,45898
20,99798	0,47363
21,00807	0,46875
21,01817	0,46875
21,02826	0,46387
21,03836	0,46387
21,04845	0,46387
21,05855	0,46387
21,06864	0,46387
21,07874	0,46387
21,08883	0,45898
21,09893	0,46387
21,10902	0,45898
21,11912	0,46387
21,12921	0,46387
21,13931	0,45898
21,14940	0,46875
21,15950	0,46875
21,16959	0,46387
21,17969	0,46875
21,18978	0,46387
21,19988	0,47363
21,20998	0,46387
21,22007	0,45898
21,23017	0,46875
21,24026	0,46875
21,25036	0,46387
21,26045	0,46875
21,27055	0,46875
21,28064	0,46387
21,29074	0,46875
21,30083	0,45898
21,31093	0,46875
21,32102	0,46387
21,33112	0,46387
21,34121	0,46875
21,35131	0,46387
21,36140	0,46875
21,37150	0,46387
21,38159	0,46875
21,39169	0,46875
21,40178	0,45898
21,41188	0,46875
21,42197	0,46387
21,43207	0,46387
21,44216	0,46387
21,45226	0,45898
21,46235	0,46387
21,47245	0,46387
21,48254	0,46875
21,49264	0,46387
21,50274	0,46387
21,51283	0,46875
21,52293	0,46387
21,53302	0,46875
21,54312	0,46387
21,55321	0,46387
21,56331	0,46387
21,57340	0,46875
21,58350	0,46875
21,59359	0,46875
21,60369	0,46387
21,61378	0,46387
21,62388	0,46387
21,63397	0,46875
21,64407	0,46387
21,65416	0,46387
21,66426	0,46387
21,67435	0,46875
21,68445	0,46387
21,69454	0,46387
21,70464	0,46387
21,71473	0,46875
21,72483	0,46875
21,73492	0,46387
21,74502	0,46387
21,75511	0,46387
21,76521	0,45898
21,77531	0,46875
21,78540	0,46387
21,79550	0,46875
21,80559	0,46387
21,81569	0,46387
21,82578	0,46875
21,83588	0,46875
21,84597	0,46387
21,85607	0,46387
21,86616	0,46387
21,87626	0,46387
21,88635	0,46387
21,89645	0,46387
21,90654	0,46875
21,91664	0,46387
21,92673	0,46387
21,93683	0,46875
21,94692	0,46387
21,95702	0,46875
21,96711	0,46875
21,97721	0,45898
21,98730	0,46875
21,99740	0,46387
22,00749	0,46387
22,01759	0,46875
22,02768	0,46387
22,03778	0,46387
22,04788	0,46387
22,05797	0,46875
22,06807	0,46387
22,07816	0,46387
22,08826	0,46875
22,09835	0,46387
22,10845	0,46875
22,11854	0,46387
22,12864	0,46875
22,13873	0,46875
22,14883	0,45898
22,15892	0,46387
22,16902	0,46875
22,17911	0,46387
22,18921	0,46387
22,19930	0,46387
22,20940	0,46387
22,21949	0,46387
22,22959	0,46387
22,23968	0,46875
22,24978	0,46875
22,25987	0,46387
22,26997	0,46387
22,28006	0,45898
22,29016	0,46875
22,30025	0,46387
22,31035	0,46387
22,32044	0,46387
22,33054	0,46875
22,34064	0,46875
22,35073	0,45898
22,36083	0,46387
22,37092	0,46387
22,38102	0,45898
22,39111	0,46875
22,40121	0,46875
22,41130	0,46387
22,42140	0,46387
22,43149	0,46387
22,44159	0,46875
22,45168	0,46387
22,46178	0,45898
22,47187	0,46875
22,48197	0,46387
22,49206	0,46875
22,50216	0,46387
22,51225	0,46387
22,52235	0,46387
22,53244	0,46875
22,54254	0,46387
22,55263	0,46387
22,56273	0,45898
22,57282	0,46875
22,58292	0,46875
22,59301	0,46387
22,60311	0,46387
22,61321	0,46387
22,62330	0,46387
22,63340	0,46387
22,64349	0,46387
22,65359	0,46387
22,66368	0,46387
22,67378	0,46387
22,68387	0,46875
22,69397	0,45410
22,70406	0,46387
22,71416	0,46387
22,72425	0,46387
22,73435	0,46875
22,74444	0,45898
22,75454	0,46875
22,76463	0,46387
22,77473	0,45898
22,78482	0,46387
22,79492	0,46387
22,80501	0,46387
22,81511	0,46875
22,82520	0,45898
22,83530	0,46387
22,84539	0,46875
22,85549	0,46387
22,86558	0,46387
22,87568	0,46387
22,88578	0,46387
22,89587	0,45898
22,90597	0,45898
22,91606	0,46387
22,92616	0,46875
22,93625	0,46387
22,94635	0,46387
22,95644	0,45898
22,96654	0,46875
22,97663	0,46387
22,98673	0,46875
22,99682	0,46387
23,00692	0,46387
23,01701	0,46387
23,02711	0,46387
23,03720	0,46387
23,04730	0,46875
23,05739	0,45898
23,06749	0,46875
23,07758	0,46387
23,08768	0,46387
23,09777	0,46387
23,10787	0,46875
23,11796	0,46875
23,12806	0,45898
23,13815	0,46387
23,14825	0,46875
23,15834	0,45898
23,16844	0,46387
23,17854	0,45410
23,18863	0,45898
23,19873	0,46387
23,20882	0,45898
23,21892	0,46387
23,22901	0,46387
23,23911	0,46875
23,24920	0,46387
23,25930	0,46387
23,26939	0,46387
23,27949	0,46875
23,28958	0,45898
23,29968	0,46387
23,30977	0,46875
23,31987	0,46875
23,32996	0,46875
23,34006	0,46387
23,35015	0,46387
23,36025	0,46875
23,37034	0,45898
23,38044	0,46875
23,39053	0,46387
23,40063	0,46387
23,41072	0,46875
23,42082	0,46875
23,43091	0,46387
23,44101	0,46387
23,45111	0,46875
23,46120	0,46387
23,47130	0,46387
23,48139	0,46875
23,49149	0,46387
23,50158	0,46387
23,51168	0,46387
23,52177	0,45898
23,53187	0,46875
23,54196	0,46387
23,55206	0,46387
23,56215	0,46387
23,57225	0,46875
23,58234	0,46387
23,59244	0,47363
23,60253	0,46387
23,61263	0,46387
23,62272	0,46387
23,63282	0,46387
23,64291	0,46387
23,65301	0,46875
23,66310	0,46387
23,67320	0,45410
23,68329	0,46387
23,69339	0,46387
23,70348	0,46387
23,71358	0,46387
23,72368	0,46387
23,73377	0,45898
23,74387	0,46875
23,75396	0,45898
23,76406	0,46875
23,77415	0,45898
23,78425	0,46387
23,79434	0,46875
23,80444	0,46875
23,81453	0,46387
23,82463	0,46387
23,83472	0,46875
23,84482	0,46875
23,85491	0,45410
23,86501	0,46875
23,87510	0,46387
23,88520	0,46387
23,89529	0,46875
23,90539	0,46387
23,91548	0,46875
23,92558	0,46875
23,93567	0,45898
23,94577	0,46875
23,95586	0,46387
23,96596	0,46387
23,97605	0,46875
23,98615	0,46387
23,99624	0,46875
24,00634	0,45898
24,01644	0,46387
24,02653	0,46875
24,03663	0,46387
24,04672	0,46387
24,05682	0,46387
24,06691	0,46387
24,07701	0,46387
24,08710	0,46387
24,09720	0,45898
24,10729	0,46875
24,11739	0,46387
24,12748	0,46387
24,13758	0,46387
24,14767	0,46387
24,15777	0,46387
24,16786	0,46387
24,17796	0,46387
24,18805	0,46387
24,19815	0,45898
24,20824	0,46875
24,21834	0,46387
24,22843	0,45898
24,23853	0,46387
24,24862	0,46387
24,25872	0,46387
24,26881	0,46875
24,27891	0,46387
24,28901	0,47363
24,29910	0,45898
24,30920	0,46387
24,31929	0,46387
24,32939	0,46387
24,33948	0,46387
24,34958	0,46387
24,35967	0,47363
24,36977	0,46875
24,37986	0,46875
24,38996	0,46875
24,40005	0,45898
24,41015	0,46387
24,42024	0,46387
24,43034	0,45898
24,44043	0,46387
24,45053	0,45410
24,46062	0,46387
24,47072	0,46387
24,48081	0,46387
24,49091	0,45898
24,50100	0,46875
24,51110	0,46387
24,52119	0,46875
24,53129	0,46387
24,54138	0,46875
24,55148	0,45898
24,56158	0,46387
24,57167	0,46875
24,58177	0,46387
24,59186	0,46387
24,60196	0,46387
24,61205	0,45898
24,62215	0,46387
24,63224	0,46387
24,64234	0,46875
24,65243	0,46387
24,66253	0,47363
24,67262	0,46387
24,68272	0,46387
24,69281	0,46387
24,70291	0,46387
24,71300	0,46387
24,72310	0,46387
24,73319	0,45898
24,74329	0,46875
24,75338	0,46387
24,76348	0,46387
24,77357	0,46387
24,78367	0,46387
24,79376	0,46875
24,80386	0,46387
24,81395	0,46875
24,82405	0,46387
24,83414	0,46875
24,84424	0,45410
24,85434	0,46875
24,86443	0,46387
24,87453	0,46875
24,88462	0,46875
24,89472	0,46387
24,90481	0,46875
24,91491	0,46387
24,92500	0,46875
24,93510	0,46387
24,94519	0,45898
24,95529	0,46875
24,96538	0,45898
24,97548	0,46875
24,98557	0,46387
24,99567	0,45898
25,00576	0,46875
25,01586	0,46387
25,02595	0,46387
25,03605	0,46387
25,04614	0,46387
25,05624	0,46387
25,06633	0,46387
25,07643	0,45898
25,08652	0,46387
25,09662	0,46387
25,10671	0,46387
25,11681	0,46875
25,12691	0,46387
25,13700	0,46387
25,14710	0,46387
25,15719	0,46387
25,16729	0,46387
25,17738	0,46387
25,18748	0,46387
25,19757	0,46387
25,20767	0,46387
25,21776	0,46875
25,22786	0,46387
25,23795	0,46875
25,24805	0,46387
25,25814	0,46387
25,26824	0,46875
25,27833	0,45410
25,28843	0,46875
25,29852	0,46387
25,30862	0,46387
25,31871	0,46387
25,32881	0,46875
25,33890	0,46387
25,34900	0,46875
25,35909	0,46387
25,36919	0,46387
25,37928	0,46387
25,38938	0,46387
25,39948	0,46387
25,40957	0,46387
25,41967	0,46875
25,42976	0,46387
25,43986	0,46387
25,44995	0,46387
25,46005	0,46387
25,47014	0,45898
25,48024	0,46387
25,49033	0,46875
25,50043	0,46387
25,51052	0,46387
25,52062	0,46875
25,53071	0,46387
25,54081	0,46387
25,55090	0,46387
25,56100	0,45898
25,57109	0,46387
25,58119	0,46875
25,59128	0,45898
25,60138	0,46875
25,61147	0,46387
25,62157	0,46387
25,63166	0,46875
25,64176	0,46875
25,65185	0,46387
25,66195	0,46875
25,67205	0,46387
25,68214	0,46875
25,69224	0,45898
25,70233	0,46387
25,71243	0,46387
25,72252	0,46387
25,73262	0,46875
25,74271	0,45410
25,75281	0,46875
25,76290	0,46387
25,77300	0,46387
25,78309	0,45898
25,79319	0,46387
25,80328	0,46387
25,81338	0,46387
25,82347	0,46387
25,83357	0,45898
25,84366	0,46387
25,85376	0,46387
25,86385	0,46875
25,87395	0,45898
25,88404	0,46387
25,89414	0,47363
25,90423	0,45898
25,91433	0,47363
25,92442	0,45898
25,93452	0,46875
25,94461	0,46875
25,95471	0,45898
25,96481	0,46387
25,97490	0,46387
25,98500	0,45410
25,99509	0,46875
26,00519	0,46387
26,01528	0,46387
26,02538	0,46387
26,03547	0,46875
26,04557	0,46875
26,05566	0,46387
26,06576	0,45898
26,07585	0,46387
26,08595	0,46875
26,09604	0,47363
26,10614	0,46875
26,11623	0,46387
26,12633	0,46875
26,13642	0,46387
26,14652	0,46387
26,15661	0,46387
26,16671	0,46387
26,17680	0,46387
26,18690	0,46387
26,19699	0,45898
26,20709	0,46875
26,21718	0,46875
26,22728	0,45898
26,23738	0,46387
26,24747	0,45898
26,25757	0,46875
26,26766	0,46387
26,27776	0,46387
26,28785	0,46387
26,29795	0,46875
26,30804	0,46387
26,31814	0,46387
26,32823	0,45898
26,33833	0,46875
26,34842	0,46387
26,35852	0,46387
26,36861	0,46387
26,37871	0,46387
26,38880	0,46387
26,39890	0,45410
26,40899	0,46875
26,41909	0,46387
26,42918	0,46387
26,43928	0,46875
26,44937	0,45898
26,45947	0,46387
26,46956	0,46387
26,47966	0,47363
26,48975	0,46875
26,49985	0,46387
26,50995	0,46387
26,52004	0,45898
26,53014	0,46387
26,54023	0,46387
26,55033	0,45898
26,56042	0,46387
26,57052	0,46387
26,58061	0,45410
26,59071	0,46875
26,60080	0,46387
26,61090	0,47363
26,62099	0,46387
26,63109	0,46875
26,64118	0,46875
26,65128	0,46387
26,66137	0,46875
26,67147	0,46387
26,68156	0,46387
26,69166	0,45898
26,70175	0,46387
26,71185	0,46387
26,72194	0,46387
26,73204	0,46387
26,74213	0,46387
26,75223	0,46387
26,76232	0,46875
26,77242	0,46387
26,78251	0,46875
26,79261	0,46387
26,80271	0,46387
26,81280	0,46387
26,82290	0,46387
26,83299	0,46387
26,84309	0,46875
26,85318	0,46387
26,86328	0,45898
26,87337	0,47363
26,88347	0,46387
26,89356	0,46387
26,90366	0,45898
26,91375	0,46387
26,92385	0,46387
26,93394	0,45410
26,94404	0,46387
26,95413	0,46875
26,96423	0,45898
26,97432	0,46387
26,98442	0,46387
26,99451	0,46387
27,00461	0,46387
27,01470	0,46387
27,02480	0,46387
27,03489	0,46875
27,04499	0,46387
27,05508	0,46875
27,06518	0,45898
27,07528	0,46387
27,08537	0,46387
27,09547	0,46387
27,10556	0,45898
27,11566	0,46875
27,12575	0,46387
27,13585	0,46387
27,14594	0,46875
27,15604	0,46387
27,16613	0,46387
27,17623	0,46387
27,18632	0,47363
27,19642	0,46387
27,20651	0,46387
27,21661	0,46875
27,22670	0,45898
27,23680	0,46387
27,24689	0,46387
27,25699	0,46875
27,26708	0,46387
27,27718	0,46875
27,28727	0,46387
27,29737	0,45898
27,30746	0,46387
27,31756	0,46875
27,32765	0,46875
27,33775	0,46875
27,34785	0,46387
27,35794	0,46875
27,36804	0,46875
27,37813	0,46387
27,38823	0,46387
27,39832	0,46387
27,40842	0,45898
27,41851	0,46387
27,42861	0,46387
27,43870	0,46387
27,44880	0,46387
27,45889	0,46387
27,46899	0,46387
27,47908	0,45898
27,48918	0,46387
27,49927	0,46387
27,50937	0,46387
27,51946	0,46387
27,52956	0,46387
27,53965	0,46387
27,54975	0,46387
27,55984	0,45410
27,56994	0,46387
27,58003	0,46387
27,59013	0,46387
27,60022	0,46387
27,61032	0,46875
27,62041	0,46387
27,63051	0,46875
27,64061	0,46387
27,65070	0,46387
27,66080	0,46875
27,67089	0,46387
27,68099	0,46387
27,69108	0,45898
27,70118	0,46875
27,71127	0,45898
27,72137	0,46875
27,73146	0,46875
27,74156	0,46387
27,75165	0,46875
27,76175	0,46387
27,77184	0,46387
27,78194	0,46387
27,79203	0,45898
27,80213	0,47363
27,81222	0,46387
27,82232	0,46875
27,83241	0,46387
27,84251	0,46387
27,85260	0,46387
27,86270	0,46387
27,87279	0,46387
27,88289	0,46387
27,89298	0,46387
27,90308	0,46387
27,91318	0,46387
27,92327	0,45898
27,93337	0,46387
27,94346	0,46387
27,95356	0,46387
27,96365	0,45898
27,97375	0,45898
27,98384	0,46875
27,99394	0,46875
28,00403	0,46387
28,01413	0,46875
28,02422	0,46875
28,03432	0,46875
28,04441	0,46387
28,05451	0,45898
28,06460	0,45898
28,07470	0,46875
28,08479	0,46387
28,09489	0,46387
28,10498	0,45898
28,11508	0,46387
28,12517	0,45410
28,13527	0,46875
28,14536	0,45898
28,15546	0,45898
28,16555	0,46875
28,17565	0,45410
28,18575	0,46387
28,19584	0,46875
28,20594	0,46387
28,21603	0,46387
28,22613	0,46387
28,23622	0,45898
28,24632	0,46875
28,25641	0,45898
28,26651	0,46387
28,27660	0,46875
28,28670	0,46387
28,29679	0,46387
28,30689	0,46875
28,31698	0,45898
28,32708	0,46875
28,33717	0,46387
28,34727	0,47363
28,35736	0,45410
28,36746	0,45898
28,37755	0,46387
28,38765	0,45410
28,39774	0,46387
28,40784	0,46387
28,41793	0,46875
28,42803	0,46875
28,43812	0,45898
28,44822	0,46875
28,45831	0,45898
28,46841	0,46387
28,47851	0,46387
28,48860	0,46387
28,49870	0,46387
28,50879	0,45898
28,51889	0,46387
28,52898	0,46387
28,53908	0,46875
28,54917	0,46387
28,55927	0,46875
28,56936	0,45898
28,57946	0,46875
28,58955	0,46875
28,59965	0,46387
28,60974	0,46875
28,61984	0,46387
28,62993	0,46387
28,64003	0,46387
28,65012	0,45410
28,66022	0,46387
28,67031	0,45410
28,68041	0,46875
28,69050	0,45898
28,70060	0,46875
28,71069	0,46387
28,72079	0,46387
28,73088	0,46387
28,74098	0,46387
28,75108	0,46387
28,76117	0,46875
28,77127	0,46387
28,78136	0,46387
28,79146	0,47363
28,80155	0,45898
28,81165	0,45898
28,82174	0,46387
28,83184	0,46875
28,84193	0,46875
28,85203	0,46387
28,86212	0,46387
28,87222	0,45898
28,88231	0,46387
28,89241	0,46875
28,90250	0,46875
28,91260	0,46387
28,92269	0,46875
28,93279	0,46387
28,94288	0,46875
28,95298	0,46387
28,96307	0,46387
28,97317	0,46875
28,98326	0,46875
28,99336	0,45898
29,00345	0,46387
29,01355	0,46875
29,02365	0,46387
29,03374	0,46387
29,04384	0,46875
29,05393	0,46387
29,06403	0,46387
29,07412	0,46387
29,08422	0,45898
29,09431	0,46387
29,10441	0,47363
29,11450	0,46387
29,12460	0,46875
29,13469	0,45898
29,14479	0,46387
29,15488	0,45898
29,16498	0,46875
29,17507	0,46387
29,18517	0,45410
29,19526	0,46387
29,20536	0,46875
29,21545	0,46387
29,22555	0,46875
29,23564	0,46387
29,24574	0,46387
29,25583	0,46387
29,26593	0,46387
29,27602	0,46875
29,28612	0,46875
29,29621	0,46387
29,30631	0,46875
29,31641	0,46875
29,32650	0,46387
29,33660	0,46387
29,34669	0,46387
29,35679	0,46875
29,36688	0,46875
29,37698	0,46387
29,38707	0,45898
29,39717	0,46875
29,40726	0,46875
29,41736	0,46387
29,42745	0,46387
29,43755	0,46387
29,44764	0,45898
29,45774	0,46875
29,46783	0,46875
29,47793	0,46387
29,48802	0,46875
29,49812	0,45898
29,50821	0,45410
29,51831	0,46387
29,52840	0,46875
29,53850	0,47363
29,54859	0,46875
29,55869	0,46387
29,56878	0,46875
29,57888	0,46387
29,58898	0,46875
29,59907	0,46875
29,60917	0,46387
29,61926	0,46387
29,62936	0,46875
29,63945	0,46387
29,64955	0,45898
29,65964	0,46387
29,66974	0,46875
29,67983	0,46875
29,68993	0,46875
29,70002	0,46875
29,71012	0,46387
29,72021	0,46387
29,73031	0,46387
29,74040	0,46387
29,75050	0,46875
29,76059	0,45898
29,77069	0,46387
29,78078	0,46875
29,79088	0,45898
29,80097	0,46875
29,81107	0,45410
29,82116	0,46875
29,83126	0,46387
29,84135	0,46387
29,85145	0,46387
29,86155	0,46387
29,87164	0,46875
29,88174	0,46387
29,89183	0,46387
29,90193	0,45898
29,91202	0,46875
29,92212	0,46875
29,93221	0,46875
29,94231	0,45898
29,95240	0,46387
29,96250	0,46875
29,97259	0,46387
29,98269	0,46387
29,99278	0,46387
30,00288	0,46875
30,01297	0,46875
30,02307	0,46875
30,03316	0,46387
30,04326	0,45410
30,05335	0,46875
30,06345	0,46875
30,07354	0,46387
30,08364	0,46875
30,09373	0,45898
30,10383	0,46875
30,11392	0,46387
30,12402	0,45898
30,13411	0,46875
30,14421	0,46387
30,15431	0,46387
30,16440	0,46387
30,17450	0,46875
30,18459	0,46875
30,19469	0,46387
30,20478	0,46387
30,21488	0,46875
30,22497	0,46387
30,23507	0,46387
30,24516	0,46387
30,25526	0,46875
30,26535	0,46875
30,27545	0,46387
30,28554	0,46875
30,29564	0,46387
30,30573	0,46387
30,31583	0,46387
30,32592	0,46387
30,33602	0,46387
30,34611	0,46387
30,35621	0,46387
30,36630	0,46387
30,37640	0,46387
30,38649	0,46387
30,39659	0,46875
30,40668	0,46387
30,41678	0,46875
30,42688	0,45898
30,43697	0,46387
30,44707	0,46387
30,45716	0,46387
30,46726	0,46875
30,47735	0,46387
30,48745	0,46875
30,49754	0,46387
30,50764	0,46387
30,51773	0,46875
30,52783	0,46875
30,53792	0,47852
30,54802	0,46387
30,55811	0,46875
30,56821	0,46875
30,57830	0,46387
30,58840	0,46387
30,59849	0,45898
30,60859	0,46875
30,61868	0,45898
30,62878	0,46875
30,63887	0,46387
30,64897	0,46387
30,65906	0,46875
30,66916	0,46387
30,67925	0,46875
30,68935	0,45898
30,69945	0,46387
30,70954	0,46875
30,71964	0,46387
30,72973	0,46875
30,73983	0,46387
30,74992	0,46875
30,76002	0,46875
30,77011	0,46387
30,78021	0,47363
30,79030	0,46387
30,80040	0,46875
30,81049	0,46387
30,82059	0,46875
30,83068	0,46387
30,84078	0,46387
30,85087	0,46387
30,86097	0,46387
30,87106	0,46387
30,88116	0,46387
30,89125	0,46387
30,90135	0,46875
30,91144	0,45898
30,92154	0,46875
30,93163	0,46875
30,94173	0,46875
30,95182	0,46387
30,96192	0,46387
30,97201	0,46875
30,98211	0,46875
30,99221	0,46387
31,00230	0,46387
31,01240	0,45898
31,02249	0,45898
31,03259	0,45898
31,04268	0,46875
31,05278	0,46387
31,06287	0,46387
31,07297	0,46875
31,08306	0,45898
31,09316	0,46875
31,10325	0,46875
31,11335	0,46875
31,12344	0,46875
31,13354	0,46387
31,14363	0,46875
31,15373	0,46387
31,16382	0,45898
31,17392	0,46387
31,18401	0,45898
31,19411	0,46875
31,20420	0,45410
31,21430	0,46875
31,22439	0,46387
31,23449	0,46387
31,24458	0,46387
31,25468	0,46387
31,26478	0,46387
31,27487	0,46387
31,28497	0,46387
31,29506	0,46875
31,30516	0,46875
31,31525	0,46875
31,32535	0,46387
31,33544	0,45410
31,34554	0,45898
31,35563	0,46875
31,36573	0,46387
31,37582	0,46387
31,38592	0,46387
31,39601	0,46387
31,40611	0,46875
31,41620	0,46875
31,42630	0,47363
31,43639	0,46387
31,44649	0,46387
31,45658	0,46875
31,46668	0,46387
31,47677	0,46387
31,48687	0,46387
31,49696	0,45898
31,50706	0,46875
31,51715	0,47363
31,52725	0,46387
31,53735	0,46387
31,54744	0,46387
31,55754	0,46875
31,56763	0,46875
31,57773	0,46387
31,58782	0,46875
31,59792	0,46875
31,60801	0,45410
31,61811	0,46387
31,62820	0,46387
31,63830	0,46875
31,64839	0,46387
31,65849	0,46875
31,66858	0,46387
31,67868	0,46387
31,68877	0,46387
31,69887	0,46387
31,70896	0,46387
31,71906	0,46875
31,72915	0,46387
31,73925	0,46875
31,74934	0,46387
31,75944	0,46387
31,76953	0,46387
31,77963	0,45410
31,78972	0,46875
31,79982	0,46387
31,80991	0,46387
31,82001	0,46875
31,83011	0,45898
31,84020	0,47852
31,85030	0,46387
31,86039	0,46387
31,87049	0,46875
31,88058	0,46387
31,89068	0,47363
31,90077	0,46875
31,91087	0,45898
31,92096	0,46387
31,93106	0,46387
31,94115	0,46875
31,95125	0,46387
31,96134	0,46875
31,97144	0,46387
31,98153	0,46875
31,99163	0,46387
32,00172	0,46875
32,01182	0,46387
32,02191	0,46387
32,03201	0,46875
32,04210	0,46875
32,05220	0,46387
32,06229	0,46875
32,07239	0,46875
32,08248	0,46387
32,09258	0,46875
32,10268	0,47363
32,11277	0,46875
32,12287	0,46387
32,13296	0,46875
32,14306	0,46387
32,15315	0,46875
32,16325	0,46875
32,17334	0,46875
32,18344	0,46387
32,19353	0,46387
32,20363	0,46387
32,21372	0,46387
32,22382	0,45898
32,23391	0,46875
32,24401	0,46387
32,25410	0,45898
32,26420	0,46387
32,27429	0,47363
32,28439	0,46875
32,29448	0,46387
32,30458	0,46387
32,31467	0,46387
32,32477	0,46387
32,33486	0,46387
32,34496	0,46387
32,35505	0,46875
32,36515	0,46875
32,37525	0,45898
32,38534	0,46875
32,39544	0,45898
32,40553	0,46875
32,41563	0,46387
32,42572	0,46875
32,43582	0,46875
32,44591	0,46387
32,45601	0,45410
32,46610	0,47852
32,47620	0,46387
32,48629	0,46387
32,49639	0,46387
32,50648	0,46387
32,51658	0,46875
32,52667	0,46387
32,53677	0,46387
32,54686	0,46875
32,55696	0,46875
32,56705	0,46387
32,57715	0,46387
32,58724	0,46387
32,59734	0,46387
32,60743	0,45898
32,61753	0,46387
32,62762	0,46387
32,63772	0,46387
32,64782	0,46387
32,65791	0,46387
32,66801	0,46387
32,67810	0,46875
32,68820	0,46387
32,69829	0,45898
32,70839	0,46387
32,71848	0,46387
32,72858	0,46387
32,73867	0,46875
32,74877	0,46875
32,75886	0,46875
32,76896	0,46875
32,77905	0,46387
32,78915	0,47852
32,79924	0,46387
32,80934	0,46875
32,81943	0,46875
32,82953	0,46875
32,83962	0,46875
32,84972	0,46875
32,85981	0,46387
32,86991	0,47363
32,88000	0,46387
32,89010	0,46387
32,90019	0,45898
32,91029	0,46387
32,92038	0,46387
32,93048	0,46875
32,94058	0,46387
32,95067	0,46387
32,96077	0,46875
32,97086	0,46387
32,98096	0,46875
32,99105	0,46875
33,00115	0,46387
33,01124	0,47363
33,02134	0,46875
33,03143	0,46875
33,04153	0,46387
33,05162	0,46387
33,06172	0,46387
33,07181	0,46387
33,08191	0,46875
33,09200	0,46387
33,10210	0,46875
33,11219	0,46875
33,12229	0,46875
33,13238	0,46875
33,14248	0,46875
33,15257	0,46875
33,16267	0,46387
33,17276	0,46875
33,18286	0,46387
33,19295	0,46387
33,20305	0,46387
33,21315	0,46387
33,22324	0,46875
33,23334	0,46387
33,24343	0,47363
33,25353	0,46387
33,26362	0,46875
33,27372	0,46875
33,28381	0,46387
33,29391	0,47852
33,30400	0,46387
33,31410	0,46387
33,32419	0,46875
33,33429	0,46387
33,34438	0,46875
33,35448	0,46387
33,36457	0,46387
33,37467	0,46387
33,38476	0,46875
33,39486	0,46387
33,40495	0,46875
33,41505	0,47363
33,42514	0,45410
33,43524	0,45410
33,44533	0,46387
33,45543	0,46875
33,46552	0,46875
33,47562	0,45898
33,48572	0,46387
33,49581	0,46387
33,50591	0,46875
33,51600	0,46387
33,52610	0,46387
33,53619	0,46875
33,54629	0,46387
33,55638	0,46387
33,56648	0,46387
33,57657	0,47363
33,58667	0,46387
33,59676	0,46875
33,60686	0,46387
33,61695	0,46875
33,62705	0,46875
33,63714	0,46387
33,64724	0,46875
33,65733	0,46875
33,66743	0,46875
33,67752	0,46875
33,68762	0,46387
33,69771	0,46875
33,70781	0,46875
33,71790	0,46387
33,72800	0,46875
33,73809	0,46875
33,74819	0,46387
33,75828	0,47363
33,76838	0,46387
33,77848	0,46387
33,78857	0,46875
33,79867	0,46387
33,80876	0,46875
33,81886	0,47363
33,82895	0,46387
33,83905	0,46387
33,84914	0,46387
33,85924	0,46875
33,86933	0,46387
33,87943	0,46387
33,88952	0,45898
33,89962	0,46387
33,90971	0,47363
33,91981	0,46875
33,92990	0,46387
33,94000	0,46875
33,95009	0,46387
33,96019	0,46387
33,97028	0,46875
33,98038	0,46875
33,99047	0,46387
34,00057	0,46387
34,01066	0,46387
34,02076	0,47363
34,03085	0,45898
34,04095	0,46387
34,05105	0,46387
34,06114	0,46387
34,07124	0,46875
34,08133	0,46387
34,09143	0,46387
34,10152	0,46387
34,11162	0,46387
34,12171	0,46875
34,13181	0,46875
34,14190	0,46387
34,15200	0,46387
34,16209	0,46387
34,17219	0,46387
34,18228	0,46387
34,19238	0,46387
34,20247	0,46387
34,21257	0,46875
34,22266	0,46387
34,23276	0,46387
34,24285	0,46875
34,25295	0,46875
34,26304	0,46387
34,27314	0,46387
34,28323	0,46875
34,29333	0,46387
34,30342	0,46387
34,31352	0,46875
34,32362	0,46387
34,33371	0,46387
34,34381	0,46387
34,35390	0,46875
34,36400	0,46875
34,37409	0,46387
34,38419	0,46387
34,39428	0,46875
34,40438	0,46387
34,41447	0,46387
34,42457	0,46387
34,43466	0,46875
34,44476	0,47363
34,45485	0,46875
34,46495	0,47363
34,47504	0,46387
34,48514	0,46875
34,49523	0,46387
34,50533	0,46387
34,51542	0,46875
34,52552	0,46875
34,53561	0,46387
34,54571	0,46875
34,55580	0,45898
34,56590	0,46875
34,57599	0,46387
34,58609	0,46875
34,59618	0,47363
34,60628	0,46387
34,61638	0,45410
34,62647	0,46387
34,63657	0,46875
34,64666	0,47363
34,65676	0,46387
34,66685	0,46875
34,67695	0,46387
34,68704	0,46387
34,69714	0,46387
34,70723	0,45410
34,71733	0,46875
34,72742	0,46387
34,73752	0,46387
34,74761	0,46387
34,75771	0,46387
34,76780	0,46875
34,77790	0,46875
34,78799	0,46387
34,79809	0,46387
34,80818	0,46387
34,81828	0,46387
34,82837	0,46387
34,83847	0,46387
34,84856	0,46875
34,85866	0,47363
34,86875	0,45898
34,87885	0,46875
34,88895	0,46387
34,89904	0,45898
34,90914	0,46387
34,91923	0,46875
34,92933	0,47852
34,93942	0,46387
34,94952	0,47852
34,95961	0,46875
34,96971	0,46387
34,97980	0,46387
34,98990	0,46387
34,99999	0,47363
35,01009	0,46387
35,02018	0,46387
35,03028	0,46387
35,04037	0,46387
35,05047	0,46387
35,06056	0,46387
35,07066	0,46387
35,08075	0,46875
35,09085	0,47363
35,10094	0,45898
35,11104	0,46387
35,12113	0,46387
35,13123	0,46387
35,14132	0,46387
35,15142	0,46387
35,16152	0,46387
35,17161	0,46387
35,18171	0,47363
35,19180	0,46387
35,20190	0,45898
35,21199	0,46875
35,22209	0,46387
35,23218	0,46387
35,24228	0,46875
35,25237	0,47363
35,26247	0,46387
35,27256	0,47363
35,28266	0,46387
35,29275	0,46875
35,30285	0,46387
35,31294	0,46387
35,32304	0,46387
35,33313	0,46387
35,34323	0,46875
35,35332	0,46387
35,36342	0,46875
35,37351	0,46387
35,38361	0,46875
35,39370	0,46875
35,40380	0,46387
35,41389	0,46387
35,42399	0,46387
35,43408	0,45898
35,44418	0,46387
35,45428	0,46387
35,46437	0,47852
35,47447	0,46875
35,48456	0,46387
35,49466	0,47363
35,50475	0,46387
35,51485	0,45898
35,52494	0,46875
35,53504	0,46387
35,54513	0,46387
35,55523	0,45898
35,56532	0,46875
35,57542	0,46875
35,58551	0,45898
35,59561	0,46387
35,60570	0,46387
35,61580	0,46387
35,62589	0,46875
35,63599	0,46387
35,64608	0,46387
35,65618	0,46387
35,66627	0,46387
35,67637	0,46875
35,68646	0,46387
35,69656	0,46875
35,70665	0,46875
35,71675	0,46387
35,72685	0,46875
35,73694	0,46387
35,74704	0,46387
35,75713	0,46387
35,76723	0,46387
35,77732	0,46387
35,78742	0,45898
35,79751	0,46875
35,80761	0,46875
35,81770	0,46387
35,82780	0,46387
35,83789	0,46387
35,84799	0,46387
35,85808	0,46387
35,86818	0,46875
35,87827	0,46387
35,88837	0,46875
35,89846	0,46387
35,90856	0,46387
35,91865	0,46387
35,92875	0,45898
35,93884	0,46387
35,94894	0,47363
35,95903	0,46387
35,96913	0,46387
35,97922	0,46387
35,98932	0,46875
35,99942	0,46387
36,00951	0,46387
36,01961	0,46387
36,02970	0,45898
36,03980	0,46387
36,04989	0,45898
36,05999	0,45898
36,07008	0,46875
36,08018	0,45898
36,09027	0,46387
36,10037	0,46387
36,11046	0,46875
36,12056	0,47363
36,13065	0,45898
36,14075	0,46387
36,15084	0,45898
36,16094	0,46387
36,17103	0,46387
36,18113	0,46387
36,19122	0,46875
36,20132	0,46387
36,21141	0,46387
36,22151	0,46387
36,23160	0,46875
36,24170	0,46875
36,25179	0,46387
36,26189	0,46387
36,27198	0,46387
36,28208	0,46387
36,29218	0,46387
36,30227	0,46387
36,31237	0,46387
36,32246	0,46387
36,33256	0,46387
36,34265	0,46387
36,35275	0,46387
36,36284	0,46875
36,37294	0,46387
36,38303	0,46387
36,39313	0,46387
36,40322	0,46387
36,41332	0,46387
36,42341	0,46387
36,43351	0,46875
36,44360	0,46387
36,45370	0,46387
36,46379	0,46387
36,47389	0,46387
36,48398	0,46875
36,49408	0,46387
36,50417	0,46875
36,51427	0,46387
36,52436	0,46875
36,53446	0,46875
36,54455	0,46387
36,55465	0,46875
36,56475	0,46387
36,57484	0,46387
36,58494	0,46875
36,59503	0,46387
36,60513	0,45410
36,61522	0,46387
36,62532	0,45898
36,63541	0,46875
36,64551	0,46875
36,65560	0,46875
36,66570	0,46875
36,67579	0,46387
36,68589	0,46387
36,69598	0,46387
36,70608	0,46387
36,71617	0,46387
36,72627	0,46387
36,73636	0,46387
36,74646	0,46387
36,75655	0,46875
36,76665	0,46875
36,77674	0,45898
36,78684	0,46875
36,79693	0,46387
36,80703	0,46387
36,81712	0,46387
36,82722	0,46387
36,83732	0,46387
36,84741	0,46387
36,85751	0,46387
36,86760	0,46387
36,87770	0,46387
36,88779	0,46387
36,89789	0,46387
36,90798	0,46387
36,91808	0,46387
36,92817	0,46875
36,93827	0,46875
36,94836	0,46387
36,95846	0,46387
36,96855	0,46387
36,97865	0,46875
36,98874	0,46875
36,99884	0,46875
37,00893	0,46875
37,01903	0,46387
37,02912	0,46387
37,03922	0,46387
37,04931	0,46387
37,05941	0,46875
37,06950	0,46387
37,07960	0,46387
37,08969	0,46387
37,09979	0,46387
37,10988	0,46875
37,11998	0,46387
37,13008	0,46387
37,14017	0,45410
37,15027	0,46875
37,16036	0,46875
37,17046	0,46387
37,18055	0,46387
37,19065	0,46387
37,20074	0,46875
37,21084	0,46387
37,22093	0,46387
37,23103	0,47363
37,24112	0,46387
37,25122	0,46875
37,26131	0,46387
37,27141	0,46387
37,28150	0,46875
37,29160	0,46387
37,30169	0,46387
37,31179	0,46387
37,32188	0,46875
37,33198	0,46387
37,34207	0,46875
37,35217	0,46875
37,36226	0,46875
37,37236	0,46387
37,38245	0,46875
37,39255	0,46875
37,40265	0,45898
37,41274	0,46875
37,42284	0,45898
37,43293	0,46875
37,44303	0,45898
37,45312	0,46875
37,46322	0,45410
37,47331	0,46875
37,48341	0,46875
37,49350	0,46387
37,50360	0,45898
37,51369	0,46387
37,52379	0,46387
37,53388	0,46387
37,54398	0,46387
37,55407	0,46387
37,56417	0,46875
37,57426	0,45898
37,58436	0,46387
37,59445	0,46387
37,60455	0,46875
37,61464	0,46875
37,62474	0,47363
37,63483	0,46387
37,64493	0,46875
37,65502	0,46387
37,66512	0,46387
37,67522	0,46387
37,68531	0,46387
37,69541	0,45898
37,70550	0,46387
37,71560	0,46387
37,72569	0,46875
37,73579	0,46387
37,74588	0,46387
37,75598	0,46387
37,76607	0,46387
37,77617	0,46875
37,78626	0,46387
37,79636	0,46387
37,80645	0,46387
37,81655	0,46875
37,82664	0,46387
37,83674	0,46387
37,84683	0,46875
37,85693	0,46387
37,86702	0,46387
37,87712	0,46875
37,88721	0,46875
37,89731	0,46875
37,90740	0,46387
37,91750	0,46387
37,92759	0,46387
37,93769	0,46387
37,94778	0,46387
37,95788	0,46387
37,96798	0,46875
37,97807	0,46387
37,98817	0,46875
37,99826	0,46875
38,00836	0,46875
38,01845	0,46875
38,02855	0,46875
38,03864	0,46387
38,04874	0,46387
38,05883	0,47852
38,06893	0,46387
38,07902	0,46387
38,08912	0,46875
38,09921	0,47363
38,10931	0,46387
38,11940	0,45410
38,12950	0,46387
38,13959	0,46875
38,14969	0,46387
38,15978	0,46387
38,16988	0,46387
38,17997	0,45410
38,19007	0,46387
38,20016	0,46387
38,21026	0,46387
38,22035	0,46875
38,23045	0,46387
38,24055	0,46387
38,25064	0,46387
38,26074	0,46387
38,27083	0,46875
38,28093	0,46387
38,29102	0,46875
38,30112	0,46387
38,31121	0,46387
38,32131	0,46387
38,33140	0,46387
38,34150	0,46387
38,35159	0,46387
38,36169	0,45898
38,37178	0,46875
38,38188	0,45410
38,39197	0,47852
38,40207	0,46387
38,41216	0,47852
38,42226	0,46875
38,43235	0,46387
38,44245	0,45898
38,45254	0,46387
38,46264	0,45898
38,47273	0,46387
38,48283	0,45898
38,49292	0,46875
38,50302	0,46875
38,51312	0,46387
38,52321	0,46387
38,53331	0,46875
38,54340	0,46387
38,55350	0,46875
38,56359	0,45898
38,57369	0,46875
38,58378	0,46875
38,59388	0,46387
38,60397	0,46875
38,61407	0,45898
38,62416	0,46387
38,63426	0,46387
38,64435	0,46387
38,65445	0,46875
38,66454	0,45898
38,67464	0,46387
38,68473	0,46387
38,69483	0,46387
38,70492	0,46387
38,71502	0,46875
38,72511	0,45410
38,73521	0,46875
38,74530	0,46387
38,75540	0,46387
38,76549	0,46387
38,77559	0,46387
38,78568	0,46387
38,79578	0,46387
38,80588	0,46875
38,81597	0,46387
38,82607	0,46875
38,83616	0,46875
38,84626	0,46387
38,85635	0,46875
38,86645	0,46387
38,87654	0,46387
38,88664	0,46387
38,89673	0,46875
38,90683	0,46387
38,91692	0,46875
38,92702	0,46387
38,93711	0,46387
38,94721	0,46387
38,95730	0,46875
38,96740	0,46387
38,97749	0,46387
38,98759	0,46387
38,99768	0,46387
39,00778	0,46387
39,01787	0,46875
39,02797	0,46875
39,03806	0,46387
39,04816	0,46387
39,05825	0,46387
39,06835	0,47363
39,07845	0,46387
39,08854	0,46387
39,09864	0,46875
39,10873	0,46387
39,11883	0,46875
39,12892	0,46387
39,13902	0,45898
39,14911	0,46875
39,15921	0,46875
39,16930	0,46387
39,17940	0,46875
39,18949	0,46387
39,19959	0,46875
39,20968	0,46387
39,21978	0,46387
39,22987	0,46387
39,23997	0,46387
39,25006	0,46875
39,26016	0,46875
39,27025	0,46387
39,28035	0,46387
39,29044	0,46387
39,30054	0,46387
39,31063	0,46875
39,32073	0,46387
39,33082	0,46875
39,34092	0,46387
39,35102	0,46387
39,36111	0,46875
39,37121	0,46387
39,38130	0,45898
39,39140	0,46875
39,40149	0,46875
39,41159	0,46875
39,42168	0,46875
39,43178	0,46387
39,44187	0,46387
39,45197	0,45898
39,46206	0,46875
39,47216	0,46875
39,48225	0,46875
39,49235	0,46875
39,50244	0,45898
39,51254	0,46387
39,52263	0,46387
39,53273	0,46387
39,54282	0,46387
39,55292	0,46387
39,56301	0,46875
39,57311	0,45898
39,58320	0,46875
39,59330	0,46875
39,60339	0,46387
39,61349	0,46875
39,62359	0,46387
39,63368	0,46875
39,64378	0,46387
39,65387	0,46387
39,66397	0,46387
39,67406	0,46387
39,68416	0,46387
39,69425	0,46875
39,70435	0,46875
39,71444	0,46875
39,72454	0,46387
39,73463	0,46387
39,74473	0,46875
39,75482	0,46875
39,76492	0,46387
39,77501	0,46875
39,78511	0,46387
39,79520	0,46875
39,80530	0,46387
39,81539	0,45410
39,82549	0,46875
39,83558	0,46387
39,84568	0,46387
39,85577	0,45898
39,86587	0,46387
39,87596	0,46875
39,88606	0,45898
39,89615	0,46875
39,90625	0,46875
39,91635	0,46387
39,92644	0,46875
39,93654	0,46387
39,94663	0,46387
39,95673	0,45898
39,96682	0,46875
39,97692	0,45898
39,98701	0,46387
39,99711	0,45898
40,00720	0,46387
40,01730	0,46875
40,02739	0,46387
40,03749	0,46387
40,04758	0,46387
40,05768	0,46387
40,06777	0,46387
40,07787	0,46387
40,08796	0,46875
40,09806	0,46387
40,10815	0,46387
40,11825	0,46387
40,12834	0,46387
40,13844	0,46875
40,14853	0,46387
40,15863	0,46387
40,16872	0,46387
40,17882	0,46387
40,18892	0,46875
40,19901	0,46387
40,20911	0,46875
40,21920	0,46387
40,22930	0,46387
40,23939	0,46387
40,24949	0,46387
40,25958	0,46387
40,26968	0,47363
40,27977	0,45898
40,28987	0,45898
40,29996	0,46387
40,31006	0,46875
40,32015	0,46387
40,33025	0,46387
40,34034	0,46875
40,35044	0,45410
40,36053	0,46387
40,37063	0,46387
40,38072	0,45410
40,39082	0,47852
40,40091	0,46387
40,41101	0,46875
40,42110	0,46875
40,43120	0,46387
40,44129	0,46875
40,45139	0,47363
40,46149	0,46387
40,47158	0,46875
40,48168	0,46387
40,49177	0,46875
40,50187	0,45898
40,51196	0,46387
40,52206	0,46387
40,53215	0,46387
40,54225	0,46875
40,55234	0,45898
40,56244	0,46387
40,57253	0,46387
40,58263	0,46875
40,59272	0,46875
40,60282	0,46387
40,61291	0,47363
40,62301	0,46387
40,63310	0,47363
40,64320	0,46387
40,65329	0,46387
40,66339	0,46387
40,67348	0,46387
40,68358	0,46875
40,69367	0,45898
40,70377	0,46387
40,71386	0,46875
40,72396	0,47363
40,73405	0,46387
40,74415	0,46387
40,75425	0,46387
40,76434	0,46387
40,77444	0,46875
40,78453	0,46387
40,79463	0,46875
40,80472	0,46875
40,81482	0,47363
40,82491	0,45898
40,83501	0,46875
40,84510	0,45410
40,85520	0,45898
40,86529	0,46387
40,87539	0,46387
40,88548	0,46875
40,89558	0,45898
40,90567	0,46875
40,91577	0,47363
40,92586	0,46387
40,93596	0,46875
40,94605	0,46387
40,95615	0,46387
40,96624	0,46387
40,97634	0,46875
40,98643	0,46875
40,99653	0,45898
41,00662	0,47852
41,01672	0,46875
41,02682	0,45898
41,03691	0,46875
41,04701	0,46387
41,05710	0,46387
41,06720	0,45898
41,07729	0,46875
41,08739	0,46875
41,09748	0,46875
41,10758	0,46387
41,11767	0,46387
41,12777	0,45898
41,13786	0,45898
41,14796	0,46875
41,15805	0,46387
41,16815	0,45898
41,17824	0,46387
41,18834	0,46387
41,19843	0,46875
41,20853	0,46875
41,21862	0,46387
41,22872	0,46387
41,23881	0,46387
41,24891	0,46875
41,25900	0,46875
41,26910	0,46387
41,27919	0,46875
41,28929	0,46875
41,29939	0,46387
41,30948	0,46387
41,31958	0,46387
41,32967	0,46875
41,33977	0,46387
41,34986	0,46875
41,35996	0,45898
41,37005	0,45898
41,38015	0,46387
41,39024	0,46387
41,40034	0,46387
41,41043	0,46875
41,42053	0,46387
41,43062	0,46387
41,44072	0,46875
41,45081	0,46387
41,46091	0,46875
41,47100	0,45898
41,48110	0,46387
41,49119	0,46387
41,50129	0,46387
41,51138	0,46387
41,52148	0,46387
41,53157	0,45410
41,54167	0,46387
41,55176	0,46387
41,56186	0,46387
41,57195	0,46875
41,58205	0,46387
41,59215	0,46387
41,60224	0,47363
41,61234	0,46387
41,62243	0,46387
41,63253	0,46387
41,64262	0,46875
41,65272	0,45898
41,66281	0,46875
41,67291	0,45898
41,68300	0,47852
41,69310	0,46875
41,70319	0,46387
41,71329	0,46875
41,72338	0,46387
41,73348	0,46387
41,74357	0,46875
41,75367	0,46387
41,76376	0,46875
41,77386	0,46387
41,78395	0,46387
41,79405	0,46387
41,80414	0,46387
41,81424	0,46387
41,82433	0,46875
41,83443	0,46387
41,84452	0,46875
41,85462	0,46387
41,86472	0,46387
41,87481	0,46875
41,88491	0,46387
41,89500	0,46387
41,90510	0,46387
41,91519	0,46387
41,92529	0,46875
41,93538	0,46875
41,94548	0,46875
41,95557	0,46875
41,96567	0,45898
41,97576	0,46875
41,98586	0,46387
41,99595	0,46387
42,00605	0,46387
42,01614	0,46875
42,02624	0,46387
42,03633	0,45410
42,04643	0,46875
42,05652	0,46875
42,06662	0,46875
42,07671	0,46875
42,08681	0,45898
42,09690	0,46875
42,10700	0,46387
42,11709	0,46875
42,12719	0,46875
42,13729	0,46387
42,14738	0,47363
42,15748	0,46387
42,16757	0,46875
42,17767	0,46875
42,18776	0,46875
42,19786	0,46387
42,20795	0,46875
42,21805	0,46387
42,22814	0,46387
42,23824	0,46387
42,24833	0,46875
42,25843	0,46387
42,26852	0,46875
42,27862	0,46387
42,28871	0,46387
42,29881	0,46387
42,30890	0,46387
42,31900	0,46387
42,32909	0,46387
42,33919	0,46387
42,34928	0,46387
42,35938	0,46387
42,36947	0,46387
42,37957	0,46387
42,38966	0,46875
42,39976	0,46387
42,40985	0,46875
42,41995	0,46875
42,43005	0,46387
42,44014	0,47363
42,45024	0,45410
42,46033	0,46875
42,47043	0,46387
42,48052	0,46387
42,49062	0,46875
42,50071	0,46387
42,51081	0,46387
42,52090	0,46387
42,53100	0,46875
42,54109	0,46875
42,55119	0,46875
42,56128	0,46875
42,57138	0,46875
42,58147	0,45898
42,59157	0,46875
42,60166	0,46387
42,61176	0,46387
42,62185	0,46387
42,63195	0,45410
42,64204	0,46387
42,65214	0,46875
42,66223	0,46875
42,67233	0,46387
42,68242	0,46387
42,69252	0,46387
42,70262	0,46387
42,71271	0,47363
42,72281	0,46387
42,73290	0,45410
42,74300	0,47363
42,75309	0,46387
42,76319	0,46387
42,77328	0,46387
42,78338	0,46875
42,79347	0,47363
42,80357	0,46387
42,81366	0,46875
42,82376	0,46875
42,83385	0,46875
42,84395	0,46387
42,85404	0,46387
42,86414	0,46387
42,87423	0,46387
42,88433	0,46387
42,89442	0,46387
42,90452	0,46875
42,91461	0,46387
42,92471	0,46875
42,93480	0,46387
42,94490	0,46875
42,95499	0,46875
42,96509	0,45410
42,97519	0,46387
42,98528	0,46387
42,99538	0,46387
43,00547	0,47363
43,01557	0,46387
43,02566	0,46387
43,03576	0,46387
43,04585	0,46875
43,05595	0,46875
43,06604	0,46387
43,07614	0,47363
43,08623	0,46387
43,09633	0,46387
43,10642	0,46875
43,11652	0,46387
43,12661	0,46387
43,13671	0,47363
43,14680	0,46875
43,15690	0,45898
43,16699	0,46387
43,17709	0,45898
43,18718	0,46875
43,19728	0,46875
43,20737	0,46875
43,21747	0,47363
43,22756	0,46875
43,23766	0,46875
43,24775	0,46387
43,25785	0,46387
43,26795	0,46387
43,27804	0,46387
43,28814	0,46387
43,29823	0,46387
43,30833	0,46387
43,31842	0,46387
43,32852	0,46387
43,33861	0,46387
43,34871	0,46387
43,35880	0,46387
43,36890	0,46875
43,37899	0,46387
43,38909	0,46387
43,39918	0,47363
43,40928	0,45898
43,41937	0,46387
43,42947	0,46387
43,43956	0,46387
43,44966	0,46387
43,45975	0,46387
43,46985	0,46387
43,47994	0,46387
43,49004	0,46387
43,50013	0,46387
43,51023	0,46875
43,52032	0,46387
43,53042	0,46387
43,54052	0,46387
43,55061	0,47363
43,56071	0,46387
43,57080	0,46387
43,58090	0,46387
43,59099	0,46387
43,60109	0,46387
43,61118	0,46875
43,62128	0,46387
43,63137	0,46875
43,64147	0,45898
43,65156	0,46387
43,66166	0,46387
43,67175	0,46387
43,68185	0,47363
43,69194	0,47363
43,70204	0,46387
43,71213	0,45898
43,72223	0,46387
43,73232	0,46387
43,74242	0,46387
43,75251	0,46387
43,76261	0,46387
43,77270	0,46875
43,78280	0,46875
43,79289	0,46387
43,80299	0,46387
43,81309	0,47363
43,82318	0,45898
43,83328	0,45898
43,84337	0,46387
43,85347	0,46387
43,86356	0,46875
43,87366	0,46387
43,88375	0,46387
43,89385	0,46387
43,90394	0,46875
43,91404	0,46387
43,92413	0,47363
43,93423	0,46387
43,94432	0,46875
43,95442	0,46387
43,96451	0,46875
43,97461	0,46387
43,98470	0,46387
43,99480	0,46875
44,00489	0,46387
44,01499	0,46387
44,02508	0,45898
44,03518	0,46387
44,04527	0,46875
44,05537	0,47363
44,06546	0,47852
44,07556	0,46387
44,08565	0,46387
44,09575	0,46875
44,10585	0,45898
44,11594	0,46387
44,12604	0,46387
44,13613	0,47363
44,14623	0,46875
44,15632	0,46387
44,16642	0,46875
44,17651	0,46387
44,18661	0,46387
44,19670	0,46387
44,20680	0,46387
44,21689	0,46875
44,22699	0,46875
44,23708	0,46387
44,24718	0,46387
44,25727	0,45898
44,26737	0,45410
44,27746	0,46875
44,28756	0,46387
44,29765	0,46387
44,30775	0,46387
44,31784	0,46387
44,32794	0,46387
44,33803	0,46387
44,34813	0,46387
44,35822	0,46387
44,36832	0,46387
44,37842	0,46387
44,38851	0,46387
44,39861	0,45898
44,40870	0,46387
44,41880	0,46875
44,42889	0,45898
44,43899	0,46875
44,44908	0,46875
44,45918	0,46387
44,46927	0,45410
44,47937	0,46387
44,48946	0,46387
44,49956	0,46387
44,50965	0,46875
44,51975	0,46387
44,52984	0,46387
44,53994	0,46387
44,55003	0,46387
44,56013	0,46387
44,57022	0,46387
44,58032	0,46387
44,59041	0,46387
44,60051	0,46387
44,61060	0,47363
44,62070	0,46875
44,63079	0,46387
44,64089	0,47363
44,65099	0,46387
44,66108	0,46875
44,67118	0,46875
44,68127	0,47363
44,69137	0,46875
44,70146	0,46387
44,71156	0,46875
44,72165	0,46387
44,73175	0,46387
44,74184	0,46875
44,75194	0,46387
44,76203	0,46387
44,77213	0,45410
44,78222	0,46387
44,79232	0,47363
44,80241	0,46387
44,81251	0,46387
44,82260	0,46875
44,83270	0,47363
44,84279	0,46875
44,85289	0,46387
44,86298	0,46387
44,87308	0,47852
44,88317	0,46387
44,89327	0,46387
44,90336	0,46387
44,91346	0,46875
44,92355	0,46875
44,93365	0,45898
44,94375	0,47363
44,95384	0,46875
44,96394	0,46387
44,97403	0,46875
44,98413	0,46387
44,99422	0,45898
45,00432	0,46387
45,01441	0,46387
45,02451	0,46387
45,03460	0,46875
45,04470	0,46875
45,05479	0,46875
45,06489	0,46387
45,07498	0,46387
45,08508	0,46387
45,09517	0,46387
45,10527	0,46875
45,11536	0,45898
45,12546	0,46875
45,13555	0,46875
45,14565	0,46387
45,15574	0,46875
45,16584	0,45898
45,17593	0,46875
45,18603	0,46387
45,19612	0,46387
45,20622	0,46875
45,21632	0,45898
45,22641	0,46387
45,23651	0,46875
45,24660	0,46387
45,25670	0,46387
45,26679	0,46387
45,27689	0,45898
45,28698	0,46387
45,29708	0,46387
45,30717	0,45410
45,31727	0,46387
45,32736	0,46387
45,33746	0,46387
45,34755	0,46875
45,35765	0,45898
45,36774	0,47363
45,37784	0,46387
45,38793	0,46387
45,39803	0,46875
45,40812	0,46387
45,41822	0,46875
45,42831	0,45410
45,43841	0,46387
45,44850	0,46387
45,45860	0,45898
45,46869	0,46875
45,47879	0,46875
45,48889	0,46387
45,49898	0,46875
45,50908	0,46387
45,51917	0,46875
45,52927	0,46387
45,53936	0,47363
45,54946	0,46387
45,55955	0,45898
45,56965	0,46387
45,57974	0,46875
45,58984	0,46387
45,59993	0,46875
45,61003	0,46875
45,62012	0,45898
45,63022	0,47363
45,64031	0,46875
45,65041	0,46387
45,66050	0,46387
45,67060	0,46387
45,68069	0,46387
45,69079	0,45898
45,70088	0,46387
45,71098	0,45898
45,72107	0,46875
45,73117	0,46387
45,74126	0,46387
45,75136	0,46875
45,76145	0,46875
45,77155	0,45410
45,78165	0,46387
45,79174	0,47363
45,80184	0,45898
45,81193	0,47363
45,82203	0,46387
45,83212	0,46875
45,84222	0,46875
45,85231	0,46387
45,86241	0,46387
45,87250	0,46387
45,88260	0,46875
45,89269	0,46387
45,90279	0,46875
45,91288	0,46387
45,92298	0,46387
45,93307	0,46875
45,94317	0,46387
45,95326	0,45898
45,96336	0,46387
45,97345	0,46387
45,98355	0,46387
45,99364	0,45898
46,00374	0,46387
46,01383	0,46875
46,02393	0,46387
46,03402	0,46875
46,04412	0,46387
46,05422	0,46875
46,06431	0,46875
46,07441	0,46387
46,08450	0,46875
46,09460	0,46387
46,10469	0,45898
46,11479	0,46387
46,12488	0,46387
46,13498	0,46387
46,14507	0,46875
46,15517	0,45898
46,16526	0,46875
46,17536	0,46387
46,18545	0,46387
46,19555	0,46387
46,20564	0,46387
46,21574	0,46875
46,22583	0,46387
46,23593	0,45410
46,24602	0,46387
46,25612	0,46387
46,26621	0,46875
46,27631	0,46387
46,28640	0,46387
46,29650	0,46875
46,30659	0,46387
46,31669	0,46387
46,32679	0,46387
46,33688	0,46387
46,34698	0,47852
46,35707	0,45410
46,36717	0,46875
46,37726	0,46875
46,38736	0,45898
46,39745	0,46875
46,40755	0,46875
46,41764	0,46387
46,42774	0,46387
46,43783	0,46387
46,44793	0,46387
46,45802	0,45898
46,46812	0,45898
46,47821	0,46387
46,48831	0,46387
46,49840	0,47852
46,50850	0,46387
46,51859	0,46387
46,52869	0,46387
46,53878	0,47363
46,54888	0,46875
46,55897	0,46875
46,56907	0,46387
46,57916	0,46387
46,58926	0,46875
46,59936	0,46387
46,60945	0,46387
46,61955	0,46875
46,62964	0,46387
46,63974	0,46875
46,64983	0,46875
46,65993	0,46387
46,67002	0,46875
46,68012	0,46387
46,69021	0,46387
46,70031	0,46875
46,71040	0,46387
46,72050	0,47363
46,73059	0,46387
46,74069	0,47363
46,75078	0,46387
46,76088	0,46387
46,77097	0,46387
46,78107	0,46387
46,79116	0,46875
46,80126	0,46387
46,81135	0,46875
46,82145	0,46875
46,83154	0,46387
46,84164	0,46387
46,85173	0,46875
46,86183	0,46875
46,87192	0,46875
46,88202	0,46387
46,89212	0,46875
46,90221	0,46387
46,91231	0,46875
46,92240	0,46387
46,93250	0,46387
46,94259	0,46875
46,95269	0,46387
46,96278	0,46875
46,97288	0,45898
46,98297	0,46387
46,99307	0,46387
47,00316	0,47363
47,01326	0,46387
47,02335	0,46875
47,03345	0,46875
47,04354	0,46387
47,05364	0,46387
47,06373	0,46387
47,07383	0,46387
47,08392	0,46387
47,09402	0,46875
47,10411	0,46387
47,11421	0,46387
47,12430	0,46875
47,13440	0,46387
47,14449	0,46875
47,15459	0,46387
47,16469	0,46387
47,17478	0,46875
47,18488	0,46387
47,19497	0,46387
47,20507	0,47363
47,21516	0,46875
47,22526	0,46875
47,23535	0,46387
47,24545	0,46387
47,25554	0,46387
47,26564	0,45898
47,27573	0,46875
47,28583	0,46875
47,29592	0,46387
47,30602	0,46875
47,31611	0,46387
47,32621	0,47363
47,33630	0,46875
47,34640	0,46387
47,35649	0,46387
47,36659	0,46387
47,37668	0,46875
47,38678	0,46875
47,39687	0,46387
47,40697	0,46387
47,41706	0,47363
47,42716	0,46387
47,43726	0,46875
47,44735	0,46875
47,45745	0,46875
47,46754	0,46875
47,47764	0,46387
47,48773	0,46387
47,49783	0,46387
47,50792	0,46875
47,51802	0,45410
47,52811	0,46387
47,53821	0,46875
47,54830	0,46387
47,55840	0,46875
47,56849	0,46387
47,57859	0,46387
47,58868	0,46387
47,59878	0,46387
47,60887	0,46387
47,61897	0,46875
47,62906	0,46387
47,63916	0,46387
47,64925	0,46387
47,65935	0,46387
47,66944	0,46875
47,67954	0,45898
47,68963	0,46387
47,69973	0,46387
47,70982	0,46387
47,71992	0,46875
47,73002	0,46387
47,74011	0,46875
47,75021	0,46875
47,76030	0,46875
47,77040	0,46387
47,78049	0,46387
47,79059	0,46387
47,80068	0,46387
47,81078	0,46387
47,82087	0,46875
47,83097	0,46387
47,84106	0,46387
47,85116	0,46387
47,86125	0,46387
47,87135	0,46387
47,88144	0,45410
47,89154	0,46387
47,90163	0,46875
47,91173	0,46387
47,92182	0,47852
47,93192	0,47363
47,94201	0,46387
47,95211	0,46387
47,96220	0,46387
47,97230	0,46387
47,98239	0,46875
47,99249	0,45898
48,00259	0,47363
48,01268	0,46387
48,02278	0,46875
48,03287	0,46387
48,04297	0,46387
48,05306	0,46387
48,06316	0,46387
48,07325	0,46387
48,08335	0,46875
48,09344	0,46387
48,10354	0,46387
48,11363	0,46387
48,12373	0,45410
48,13382	0,46875
48,14392	0,47363
48,15401	0,45898
48,16411	0,46387
48,17420	0,46875
48,18430	0,46875
48,19439	0,46387
48,20449	0,45410
48,21458	0,46387
48,22468	0,46387
48,23477	0,46387
48,24487	0,46875
48,25496	0,46875
48,26506	0,46387
48,27516	0,46875
48,28525	0,46387
48,29535	0,47363
48,30544	0,46387
48,31554	0,45898
48,32563	0,46387
48,33573	0,46387
48,34582	0,46875
48,35592	0,46387
48,36601	0,46875
48,37611	0,47363
48,38620	0,45410
48,39630	0,46387
48,40639	0,46387
48,41649	0,46875
48,42658	0,46387
48,43668	0,46875
48,44677	0,46875
48,45687	0,46875
48,46696	0,46387
48,47706	0,46387
48,48715	0,46387
48,49725	0,47363
48,50734	0,46387
48,51744	0,46387
48,52753	0,46387
48,53763	0,45898
48,54772	0,46387
48,55782	0,46387
48,56792	0,46875
48,57801	0,46875
48,58811	0,46875
48,59820	0,46875
48,60830	0,46875
48,61839	0,46875
48,62849	0,46387
48,63858	0,46387
48,64868	0,46387
48,65877	0,46875
48,66887	0,46387
48,67896	0,46387
48,68906	0,46387
48,69915	0,46875
48,70925	0,46387
48,71934	0,46387
48,72944	0,46875
48,73953	0,46387
48,74963	0,46875
48,75972	0,46875
48,76982	0,46387
48,77991	0,46387
48,79001	0,46387
48,80010	0,46387
48,81020	0,46387
48,82029	0,46875
48,83039	0,45898
48,84049	0,46875
48,85058	0,46387
48,86068	0,46875
48,87077	0,46387
48,88087	0,46387
48,89096	0,46875
48,90106	0,46875
48,91115	0,46875
48,92125	0,46875
48,93134	0,46387
48,94144	0,46387
48,95153	0,46387
48,96163	0,46387
48,97172	0,46387
48,98182	0,46387
48,99191	0,46875
49,00201	0,45410
49,01210	0,46875
49,02220	0,46875
49,03229	0,46387
49,04239	0,47363
49,05248	0,46387
49,06258	0,46387
49,07267	0,46387
49,08277	0,45898
49,09286	0,46387
49,10296	0,46875
49,11306	0,46387
49,12315	0,46387
49,13325	0,46387
49,14334	0,47363
49,15344	0,46387
49,16353	0,46387
49,17363	0,46387
49,18372	0,46387
49,19382	0,46387
49,20391	0,46387
49,21401	0,45410
49,22410	0,46387
49,23420	0,46875
49,24429	0,46387
49,25439	0,46875
49,26448	0,45410
49,27458	0,46875
49,28467	0,46875
49,29477	0,46875
49,30486	0,46387
49,31496	0,45898
49,32505	0,46875
49,33515	0,46387
49,34524	0,45410
49,35534	0,46875
49,36543	0,46387
49,37553	0,45898
49,38562	0,46875
49,39572	0,46387
49,40582	0,46387
49,41591	0,46387
49,42601	0,46387
49,43610	0,46875
49,44620	0,46387
49,45629	0,46875
49,46639	0,46387
49,47648	0,46875
49,48658	0,46387
49,49667	0,47852
49,50677	0,45898
49,51686	0,45898
49,52696	0,46387
49,53705	0,46875
49,54715	0,46387
49,55724	0,46387
49,56734	0,46387
49,57743	0,46875
49,58753	0,46875
49,59762	0,46387
49,60772	0,46387
49,61781	0,45898
49,62791	0,46387
49,63800	0,46875
49,64810	0,46387
49,65819	0,46387
49,66829	0,46387
49,67839	0,46387
49,68848	0,46387
49,69858	0,46387
49,70867	0,46875
49,71877	0,46875
49,72886	0,46387
49,73896	0,46387
49,74905	0,46875
49,75915	0,46387
49,76924	0,46387
49,77934	0,46875
49,78943	0,46875
49,79953	0,45898
49,80962	0,46875
49,81972	0,46387
49,82981	0,46387
49,83991	0,46387
49,85000	0,46387
49,86010	0,46387
49,87019	0,46387
49,88029	0,46875
49,89038	0,46875
49,90048	0,46387
49,91057	0,46875
49,92067	0,46387
49,93076	0,46387
49,94086	0,46387
49,95096	0,47363
49,96105	0,46387
49,97115	0,46387
49,98124	0,46387
49,99134	0,46875
50,00143	0,46875
50,01153	0,46875
50,02162	0,46875
50,03172	0,47852
50,04181	0,45898
50,05191	0,46387
50,06200	0,46387
50,07210	0,46875
50,08219	0,46387
50,09229	0,45410
50,10238	0,46875
50,11248	0,46387
50,12257	0,46875
50,13267	0,46387
50,14276	0,46875
50,15286	0,46875
50,16295	0,46387
50,17305	0,46875
50,18314	0,45898
50,19324	0,46387
50,20333	0,46387
50,21343	0,46387
50,22352	0,46875
50,23362	0,46387
50,24372	0,46387
50,25381	0,46875
50,26391	0,46875
50,27400	0,45898
50,28410	0,46387
50,29419	0,46875
50,30429	0,46387
50,31438	0,46387
50,32448	0,46387
50,33457	0,46387
50,34467	0,46387
50,35476	0,46387
50,36486	0,46875
50,37495	0,46875
50,38505	0,46387
50,39514	0,47363
50,40524	0,46387
50,41533	0,47363
50,42543	0,45898
50,43552	0,46875
50,44562	0,46875
50,45571	0,45410
50,46581	0,46875
50,47590	0,46387
50,48600	0,47363
50,49609	0,46875
50,50619	0,45898
50,51629	0,46875
50,52638	0,46387
50,53648	0,46875
50,54657	0,46875
50,55667	0,46875
50,56676	0,47363
50,57686	0,45898
50,58695	0,46387
50,59705	0,46875
50,60714	0,46875
50,61724	0,46387
50,62733	0,46387
50,63743	0,46875
50,64752	0,46387
50,65762	0,46875
50,66771	0,46875
50,67781	0,46387
50,68790	0,47363
50,69800	0,46387
50,70809	0,46387
50,71819	0,45898
50,72828	0,46387
50,73838	0,46387
50,74847	0,46875
50,75857	0,46387
50,76866	0,46875
50,77876	0,45410
50,78886	0,46387
50,79895	0,46387
50,80905	0,46875
50,81914	0,46387
50,82924	0,46875
50,83933	0,46387
50,84943	0,46875
50,85952	0,46387
50,86962	0,46875
50,87971	0,46387
50,88981	0,46875
50,89990	0,46387
50,91000	0,46875
50,92009	0,45898
50,93019	0,46875
50,94028	0,46387
50,95038	0,46387
50,96047	0,45898
50,97057	0,46387
50,98066	0,46387
50,99076	0,46387
51,00085	0,46387
51,01095	0,46875
51,02104	0,45410
51,03114	0,46387
51,04123	0,46387
51,05133	0,46387
51,06142	0,46875
51,07152	0,45410
51,08162	0,46387
51,09171	0,46387
51,10181	0,46387
51,11190	0,46875
51,12200	0,46387
51,13209	0,46875
51,14219	0,45898
51,15228	0,46875
51,16238	0,46387
51,17247	0,46387
51,18257	0,46387
51,19266	0,46387
51,20276	0,46387
51,21285	0,46387
51,22295	0,46387
51,23304	0,46387
51,24314	0,46387
51,25323	0,46387
51,26333	0,46387
51,27342	0,46875
51,28352	0,46387
51,29361	0,46875
51,30371	0,46387
51,31380	0,46387
51,32390	0,46387
51,33399	0,46875
51,34409	0,46387
51,35419	0,46387
51,36428	0,46387
51,37438	0,46875
51,38447	0,45898
51,39457	0,46875
51,40466	0,47852
51,41476	0,46387
51,42485	0,47363
51,43495	0,46875
51,44504	0,46875
51,45514	0,47363
51,46523	0,46875
51,47533	0,45898
51,48542	0,46387
51,49552	0,46387
51,50561	0,46875
51,51571	0,46875
51,52580	0,46387
51,53590	0,46387
51,54599	0,46387
51,55609	0,46875
51,56618	0,46387
51,57628	0,46875
51,58637	0,46875
51,59647	0,46875
51,60656	0,46875
51,61666	0,45898
51,62676	0,46387
51,63685	0,46875
51,64695	0,46875
51,65704	0,46387
51,66714	0,46875
51,67723	0,46387
51,68733	0,46387
51,69742	0,46387
51,70752	0,46387
51,71761	0,46387
51,72771	0,46387
51,73780	0,46875
51,74790	0,47363
51,75799	0,46875
51,76809	0,46387
51,77818	0,46387
51,78828	0,46875
51,79837	0,45898
51,80847	0,46875
51,81856	0,46387
51,82866	0,46875
51,83875	0,46387
51,84885	0,46387
51,85894	0,46387
51,86904	0,45898
51,87913	0,46387
51,88923	0,46387
51,89932	0,46387
51,90942	0,46387
51,91952	0,46387
51,92961	0,46875
51,93971	0,45410
51,94980	0,46387
51,95990	0,46387
51,96999	0,46387
51,98009	0,46387
51,99018	0,46875
52,00028	0,46875
52,01037	0,46875
52,02047	0,46387
52,03056	0,46875
52,04066	0,46387
52,05075	0,46875
52,06085	0,46387
52,07094	0,46875
52,08104	0,46387
52,09113	0,46875
52,10123	0,46875
52,11132	0,45898
52,12142	0,46387
52,13151	0,45410
52,14161	0,46387
52,15170	0,46875
52,16180	0,46387
52,17189	0,46875
52,18199	0,46387
52,19209	0,46875
52,20218	0,46387
52,21228	0,45898
52,22237	0,47363
52,23247	0,46875
52,24256	0,46875
52,25266	0,46875
52,26275	0,46387
52,27285	0,46875
52,28294	0,46387
52,29304	0,46387
52,30313	0,46875
52,31323	0,46387
52,32332	0,46875
52,33342	0,46875
52,34351	0,46387
52,35361	0,46875
52,36370	0,47363
52,37380	0,46387
52,38389	0,46387
52,39399	0,46387
52,40408	0,46875
52,41418	0,45898
52,42427	0,46875
52,43437	0,46875
52,44446	0,46387
52,45456	0,46387
52,46466	0,46387
52,47475	0,46387
52,48485	0,46387
52,49494	0,46387
52,50504	0,46875
52,51513	0,46875
52,52523	0,46387
52,53532	0,46387
52,54542	0,46387
52,55551	0,45898
52,56561	0,47363
52,57570	0,46875
52,58580	0,46387
52,59589	0,46875
52,60599	0,46387
52,61608	0,46387
52,62618	0,46387
52,63627	0,46875
52,64637	0,46875
52,65646	0,46875
52,66656	0,47363
52,67665	0,46875
52,68675	0,46387
52,69684	0,46875
52,70694	0,45898
52,71703	0,46875
52,72713	0,46387
52,73722	0,46387
52,74732	0,46875
52,75742	0,46387
52,76751	0,46387
52,77761	0,46387
52,78770	0,46387
52,79780	0,46875
52,80789	0,46387
52,81799	0,46875
52,82808	0,46875
52,83818	0,46875
52,84827	0,46875
52,85837	0,45410
52,86846	0,46387
52,87856	0,46387
52,88865	0,46875
52,89875	0,46875
52,90884	0,46387
52,91894	0,46387
52,92903	0,46875
52,93913	0,46875
52,94922	0,46387
52,95932	0,46875
52,96941	0,46875
52,97951	0,45898
52,98960	0,46387
52,99970	0,46875
53,00979	0,47363
53,01989	0,46387
53,02999	0,46387
53,04008	0,46875
53,05018	0,46387
53,06027	0,46387
53,07037	0,46875
53,08046	0,46387
53,09056	0,46387
53,10065	0,46875
53,11075	0,47363
53,12084	0,46875
53,13094	0,46875
53,14103	0,46875
53,15113	0,46387
53,16122	0,46875
53,17132	0,46875
53,18141	0,46875
53,19151	0,46387
53,20160	0,46387
53,21170	0,46875
53,22179	0,46387
53,23189	0,46387
53,24198	0,46387
53,25208	0,46387
53,26217	0,46875
53,27227	0,45410
53,28236	0,46387
53,29246	0,46875
53,30256	0,46387
53,31265	0,46875
53,32275	0,46387
53,33284	0,46387
53,34294	0,46875
53,35303	0,46387
53,36313	0,46875
53,37322	0,46875
53,38332	0,46387
53,39341	0,46875
53,40351	0,46387
53,41360	0,46387
53,42370	0,46387
53,43379	0,46387
53,44389	0,46387
53,45398	0,45898
53,46408	0,46875
53,47417	0,46875
53,48427	0,46387
53,49436	0,46875
53,50446	0,46875
53,51455	0,45410
53,52465	0,46875
53,53474	0,45410
53,54484	0,46387
53,55493	0,46387
53,56503	0,46387
53,57512	0,46387
53,58522	0,45898
53,59532	0,46387
53,60541	0,46387
53,61551	0,46875
53,62560	0,46875
53,63570	0,46387
53,64579	0,46875
53,65589	0,46387
53,66598	0,46387
53,67608	0,46875
53,68617	0,46875
53,69627	0,46387
53,70636	0,46875
53,71646	0,46387
53,72655	0,46875
53,73665	0,46875
53,74674	0,46875
53,75684	0,46875
53,76693	0,45898
53,77703	0,46875
53,78712	0,46875
53,79722	0,46387
53,80731	0,46387
53,81741	0,46387
53,82750	0,46387
53,83760	0,46875
53,84769	0,46387
53,85779	0,46387
53,86789	0,46875
53,87798	0,46387
53,88808	0,46875
53,89817	0,46387
53,90827	0,46875
53,91836	0,45898
53,92846	0,45898
53,93855	0,46387
53,94865	0,46875
53,95874	0,47363
53,96884	0,46875
53,97893	0,46875
53,98903	0,45410
53,99912	0,46387
54,00922	0,46387
54,01931	0,46875
54,02941	0,46387
54,03950	0,46875
54,04960	0,45898
54,05969	0,46387
54,06979	0,46387
54,07988	0,46387
54,08998	0,46387
54,10007	0,46387
54,11017	0,46387
54,12026	0,46387
54,13036	0,46387
54,14046	0,46875
54,15055	0,46875
54,16065	0,46387
54,17074	0,46875
54,18084	0,46387
54,19093	0,46875
54,20103	0,46875
54,21112	0,46387
54,22122	0,47363
54,23131	0,46387
54,24141	0,46387
54,25150	0,46875
54,26160	0,46387
54,27169	0,46387
54,28179	0,46387
54,29188	0,46875
54,30198	0,47852
54,31207	0,46387
54,32217	0,45898
54,33226	0,46875
54,34236	0,46875
54,35245	0,46875
54,36255	0,46875
54,37264	0,46387
54,38274	0,46875
54,39283	0,46875
54,40293	0,47363
54,41303	0,46387
54,42312	0,46875
54,43322	0,46387
54,44331	0,46387
54,45341	0,47363
54,46350	0,46387
54,47360	0,46875
54,48369	0,46875
54,49379	0,47363
54,50388	0,46875
54,51398	0,45898
54,52407	0,46387
54,53417	0,46875
54,54426	0,46387
54,55436	0,46387
54,56445	0,46387
54,57455	0,46875
54,58464	0,46387
54,59474	0,46387
54,60483	0,46875
54,61493	0,46875
54,62502	0,46387
54,63512	0,46875
54,64521	0,46387
54,65531	0,46387
54,66540	0,46387
54,67550	0,46387
54,68559	0,46387
54,69569	0,46875
54,70579	0,46875
54,71588	0,45898
54,72598	0,46387
54,73607	0,46387
54,74617	0,46387
54,75626	0,46875
54,76636	0,46875
54,77645	0,46387
54,78655	0,46875
54,79664	0,45410
54,80674	0,46387
54,81683	0,46875
54,82693	0,46875
54,83702	0,46387
54,84712	0,46875
54,85721	0,46875
54,86731	0,46387
54,87740	0,46387
54,88750	0,46387
54,89759	0,46387
54,90769	0,46387
54,91778	0,46387
54,92788	0,46387
54,93797	0,46387
54,94807	0,46875
54,95816	0,46387
54,96826	0,46387
54,97836	0,46875
54,98845	0,46387
54,99855	0,46387
55,00864	0,46387
55,01874	0,46875
55,02883	0,47852
55,03893	0,46387
55,04902	0,46875
55,05912	0,46875
55,06921	0,46387
55,07931	0,46875
55,08940	0,46875
55,09950	0,46875
55,10959	0,46875
55,11969	0,45898
55,12978	0,46875
55,13988	0,46387
55,14997	0,47363
55,16007	0,45898
55,17016	0,46387
55,18026	0,46875
55,19035	0,46387
55,20045	0,46387
55,21054	0,46387
55,22064	0,45898
55,23073	0,46875
55,24083	0,45410
55,25093	0,46387
55,26102	0,46875
55,27112	0,46387
55,28121	0,46875
55,29131	0,46387
55,30140	0,46875
55,31150	0,46875
55,32159	0,46875
55,33169	0,46875
55,34178	0,46387
55,35188	0,46875
55,36197	0,46387
55,37207	0,46875
55,38216	0,46875
55,39226	0,46875
55,40235	0,46875
55,41245	0,46387
55,42254	0,46875
55,43264	0,47363
55,44273	0,47363
55,45283	0,46387
55,46292	0,46387
55,47302	0,47363
55,48311	0,46387
55,49321	0,46387
55,50330	0,46387
55,51340	0,46875
55,52349	0,46875
55,53359	0,46387
55,54369	0,46875
55,55378	0,45898
55,56388	0,46875
55,57397	0,47363
55,58407	0,46387
55,59416	0,46875
55,60426	0,46387
55,61435	0,47363
55,62445	0,46875
55,63454	0,46387
55,64464	0,46387
55,65473	0,46387
55,66483	0,45410
55,67492	0,46387
55,68502	0,46387
55,69511	0,46875
55,70521	0,46387
55,71530	0,46875
55,72540	0,46387
55,73549	0,46387
55,74559	0,46875
55,75568	0,46875
55,76578	0,46875
55,77587	0,46875
55,78597	0,46387
55,79606	0,46875
55,80616	0,45410
55,81626	0,46875
55,82635	0,46387
55,83645	0,46387
55,84654	0,46875
55,85664	0,47852
55,86673	0,47363
55,87683	0,46875
55,88692	0,46387
55,89702	0,46387
55,90711	0,47363
55,91721	0,46875
55,92730	0,47363
55,93740	0,46875
55,94749	0,46875
55,95759	0,46875
55,96768	0,46875
55,97778	0,46387
55,98787	0,46875
55,99797	0,46387
56,00806	0,46875
56,01816	0,47363
56,02825	0,46387
56,03835	0,46875
56,04844	0,46875
56,05854	0,47363
56,06863	0,46387
56,07873	0,46387
56,08883	0,46387
56,09892	0,46875
56,10902	0,46387
56,11911	0,46387
56,12921	0,46875
56,13930	0,46875
56,14940	0,46387
56,15949	0,45898
56,16959	0,46387
56,17968	0,46387
56,18978	0,47363
56,19987	0,46387
56,20997	0,46875
56,22006	0,46875
56,23016	0,46875
56,24025	0,46875
56,25035	0,46387
56,26044	0,46387
56,27054	0,47852
56,28063	0,46875
56,29073	0,46387
56,30082	0,46387
56,31092	0,46387
56,32101	0,45898
56,33111	0,46387
56,34120	0,45898
56,35130	0,46387
56,36139	0,46875
56,37149	0,46875
56,38159	0,46387
56,39168	0,46875
56,40178	0,46387
56,41187	0,46387
56,42197	0,46875
56,43206	0,45898
56,44216	0,46387
56,45225	0,47852
56,46235	0,46387
56,47244	0,46875
56,48254	0,45898
56,49263	0,47363
56,50273	0,45898
56,51282	0,46387
56,52292	0,46875
56,53301	0,46387
56,54311	0,46387
56,55320	0,46875
56,56330	0,46875
56,57339	0,46875
56,58349	0,46875
56,59358	0,46387
56,60368	0,46875
56,61377	0,45898
56,62387	0,46875
56,63396	0,46387
56,64406	0,46387
56,65416	0,46387
56,66425	0,46875
56,67435	0,46387
56,68444	0,46387
56,69454	0,46875
56,70463	0,45898
56,71473	0,46875
56,72482	0,45898
56,73492	0,46875
56,74501	0,47852
56,75511	0,46875
56,76520	0,46875
56,77530	0,46875
56,78539	0,46387
56,79549	0,46387
56,80558	0,46875
56,81568	0,46387
56,82577	0,46387
56,83587	0,46387
56,84596	0,46387
56,85606	0,46387
56,86615	0,46387
56,87625	0,45898
56,88634	0,46875
56,89644	0,46387
56,90653	0,45898
56,91663	0,46875
56,92673	0,46387
56,93682	0,47363
56,94692	0,46875
56,95701	0,46387
56,96711	0,46387
56,97720	0,47363
56,98730	0,45898
56,99739	0,46387
57,00749	0,45898
57,01758	0,46875
57,02768	0,46387
57,03777	0,46387
57,04787	0,46875
57,05796	0,46387
57,06806	0,46387
57,07815	0,45898
57,08825	0,46875
57,09834	0,46387
57,10844	0,46387
57,11853	0,46875
57,12863	0,46387
57,13872	0,46875
57,14882	0,46387
57,15891	0,46387
57,16901	0,46387
57,17910	0,46875
57,18920	0,46387
57,19929	0,46387
57,20939	0,46387
57,21949	0,46875
57,22958	0,46387
57,23968	0,46387
57,24977	0,47852
57,25987	0,46387
57,26996	0,45898
57,28006	0,46875
57,29015	0,46387
57,30025	0,46387
57,31034	0,47363
57,32044	0,46387
57,33053	0,46387
57,34063	0,46875
57,35072	0,46387
57,36082	0,46387
57,37091	0,46875
57,38101	0,47852
57,39110	0,46387
57,40120	0,47363
57,41129	0,46387
57,42139	0,46387
57,43148	0,46875
57,44158	0,46387
57,45167	0,47363
57,46177	0,46387
57,47186	0,46875
57,48196	0,46875
57,49206	0,46875
57,50215	0,46387
57,51225	0,46875
57,52234	0,46387
57,53244	0,46387
57,54253	0,46387
57,55263	0,46387
57,56272	0,46387
57,57282	0,46387
57,58291	0,46387
57,59301	0,46387
57,60310	0,46387
57,61320	0,46875
57,62329	0,46875
57,63339	0,46387
57,64348	0,46875
57,65358	0,46387
57,66367	0,46387
57,67377	0,46387
57,68386	0,46387
57,69396	0,46387
57,70405	0,46387
57,71415	0,46875
57,72424	0,46387
57,73434	0,46387
57,74443	0,45898
57,75453	0,46387
57,76463	0,46875
57,77472	0,45898
57,78482	0,45898
57,79491	0,46387
57,80501	0,46387
57,81510	0,46387
57,82520	0,46875
57,83529	0,46387
57,84539	0,46387
57,85548	0,46387
57,86558	0,46387
57,87567	0,46875
57,88577	0,46387
57,89586	0,46875
57,90596	0,46387
57,91605	0,46875
57,92615	0,46387
57,93624	0,46387
57,94634	0,46387
57,95643	0,46387
57,96653	0,46387
57,97662	0,46387
57,98672	0,46875
57,99681	0,46387
58,00691	0,46875
58,01700	0,46875
58,02710	0,46387
58,03719	0,46387
58,04729	0,45410
58,05739	0,46875
58,06748	0,46875
58,07758	0,46875
58,08767	0,46387
58,09777	0,45898
58,10786	0,46875
58,11796	0,46875
58,12805	0,46387
58,13815	0,46387
58,14824	0,46875
58,15834	0,46875
58,16843	0,46387
58,17853	0,46875
58,18862	0,46875
58,19872	0,46387
58,20881	0,46387
58,21891	0,46387
58,22900	0,46875
58,23910	0,46387
58,24919	0,46875
58,25929	0,46387
58,26938	0,46387
58,27948	0,46387
58,28957	0,46875
58,29967	0,46387
58,30976	0,46875
58,31986	0,46875
58,32996	0,46875
58,34005	0,46387
58,35015	0,46387
58,36024	0,46387
58,37034	0,46875
58,38043	0,46387
58,39053	0,46387
58,40062	0,46387
58,41072	0,46387
58,42081	0,46875
58,43091	0,46387
58,44100	0,47852
58,45110	0,46387
58,46119	0,47363
58,47129	0,46875
58,48138	0,46875
58,49148	0,47852
58,50157	0,46875
58,51167	0,46387
58,52176	0,46875
58,53186	0,46387
58,54195	0,46875
58,55205	0,46387
58,56214	0,46387
58,57224	0,46875
58,58233	0,45410
58,59243	0,46387
58,60253	0,46875
58,61262	0,46387
58,62272	0,46875
58,63281	0,46875
58,64291	0,46387
58,65300	0,46387
58,66310	0,45898
58,67319	0,46387
58,68329	0,46387
58,69338	0,46387
58,70348	0,46387
58,71357	0,46387
58,72367	0,46387
58,73376	0,46387
58,74386	0,46875
58,75395	0,46875
58,76405	0,46875
58,77414	0,46875
58,78424	0,46387
58,79433	0,46387
58,80443	0,46387
58,81452	0,46875
58,82462	0,46875
58,83471	0,46875
58,84481	0,46387
58,85490	0,46387
58,86500	0,46387
58,87509	0,46387
58,88519	0,46875
58,89529	0,46387
58,90538	0,46875
58,91548	0,46875
58,92557	0,46387
58,93567	0,46387
58,94576	0,46387
58,95586	0,46875
58,96595	0,46387
58,97605	0,46875
58,98614	0,46387
58,99624	0,46387
59,00633	0,46387
59,01643	0,47852
59,02652	0,46387
59,03662	0,46875
59,04671	0,46875
59,05681	0,46387
59,06690	0,46875
59,07700	0,46875
59,08709	0,46875
59,09719	0,45898
59,10728	0,46875
59,11738	0,46875
59,12747	0,47363
59,13757	0,46875
59,14766	0,45898
59,15776	0,46875
59,16786	0,45898
59,17795	0,46387
59,18805	0,46387
59,19814	0,46387
59,20824	0,46387
59,21833	0,46387
59,22843	0,46387
59,23852	0,46387
59,24862	0,46875
59,25871	0,46387
59,26881	0,46387
59,27890	0,47363
59,28900	0,46875
59,29909	0,46875
59,30919	0,46387
59,31928	0,46875
59,32938	0,46387
59,33947	0,46875
59,34957	0,46387
59,35966	0,47363
59,36976	0,45898
59,37985	0,46387
59,38995	0,46875
59,40004	0,46875
59,41014	0,46875
59,42023	0,45898
59,43033	0,46875
59,44043	0,46387
59,45052	0,46875
59,46062	0,46387
59,47071	0,46875
59,48081	0,46875
59,49090	0,46387
59,50100	0,46875
59,51109	0,46387
59,52119	0,46387
59,53128	0,46875
59,54138	0,46387
59,55147	0,47363
59,56157	0,46387
59,57166	0,46387
59,58176	0,46875
59,59185	0,46387
59,60195	0,47363
59,61204	0,46875
59,62214	0,46875
59,63223	0,46875
59,64233	0,47852
59,65242	0,46387
59,66252	0,46387
59,67261	0,46875
59,68271	0,46387
59,69280	0,46387
59,70290	0,46387
59,71299	0,46387
59,72309	0,46387
59,73319	0,46387
59,74328	0,46875
59,75338	0,46387
59,76347	0,46387
59,77357	0,46387
59,78366	0,46387
59,79376	0,46875
59,80385	0,46875
59,81395	0,47852
59,82404	0,45898
59,83414	0,46387
59,84423	0,46875
59,85433	0,46387
59,86442	0,46875
59,87452	0,46875
59,88461	0,46387
59,89471	0,46875
59,90480	0,46387
59,91490	0,46875
59,92499	0,45898
59,93509	0,46387
59,94518	0,46875
59,95528	0,46875
59,96537	0,46875
59,97547	0,46387
59,98556	0,46875
59,99566	0,46387
60,00576	0,46387
60,01585	0,46387
60,02595	0,46875
60,03604	0,46387
60,04614	0,46875
60,05623	0,46875
60,06633	0,46387
60,07642	0,47363
60,08652	0,46387
60,09661	0,46875
60,10671	0,46387
60,11680	0,45410
60,12690	0,46875
60,13699	0,45898
60,14709	0,46875
60,15718	0,46387
60,16728	0,47363
60,17737	0,47363
60,18747	0,45410
60,19756	0,47852
60,20766	0,46387
60,21775	0,46387
60,22785	0,46387
60,23794	0,46387
60,24804	0,46387
60,25813	0,46387
60,26823	0,46875
60,27833	0,46875
60,28842	0,46387
60,29852	0,46387
60,30861	0,46387
60,31871	0,46387
60,32880	0,46387
60,33890	0,46387
60,34899	0,46387
60,35909	0,45898
60,36918	0,46875
60,37928	0,46875
60,38937	0,46875
60,39947	0,45898
60,40956	0,46387
60,41966	0,46875
60,42975	0,46875
60,43985	0,46387
60,44994	0,46875
60,46004	0,46387
60,47013	0,46875
60,48023	0,46387
60,49032	0,45410
60,50042	0,46387
60,51051	0,46387
60,52061	0,46875
60,53070	0,46387
60,54080	0,46875
60,55089	0,45898
60,56099	0,45410
60,57109	0,46875
60,58118	0,46387
60,59128	0,46387
60,60137	0,46387
60,61147	0,46387
60,62156	0,46875
60,63166	0,46387
60,64175	0,46875
60,65185	0,46387
60,66194	0,45898
60,67204	0,46875
60,68213	0,46387
60,69223	0,46387
60,70232	0,46387
60,71242	0,46387
60,72251	0,46875
60,73261	0,46387
60,74270	0,46387
60,75280	0,46387
60,76289	0,45410
60,77299	0,47363
60,78308	0,46387
60,79318	0,46875
60,80327	0,46387
60,81337	0,45898
60,82346	0,47363
60,83356	0,46387
60,84366	0,46875
60,85375	0,45410
60,86385	0,46387
60,87394	0,46875
60,88404	0,46387
60,89413	0,46387
60,90423	0,46387
60,91432	0,46387
60,92442	0,46387
60,93451	0,46387
60,94461	0,46875
60,95470	0,46387
60,96480	0,46875
60,97489	0,46387
60,98499	0,46875
60,99508	0,46875
61,00518	0,46387
61,01527	0,46387
61,02537	0,46875
61,03546	0,46387
61,04556	0,46387
61,05565	0,46387
61,06575	0,46387
61,07584	0,46387
61,08594	0,46875
61,09603	0,46387
61,10613	0,46387
61,11623	0,46875
61,12632	0,46387
61,13642	0,46387
61,14651	0,46387
61,15661	0,46387
61,16670	0,46875
61,17680	0,46387
61,18689	0,46387
61,19699	0,46387
61,20708	0,46387
61,21718	0,46875
61,22727	0,46387
61,23737	0,46875
61,24746	0,46387
61,25756	0,46387
61,26765	0,47363
61,27775	0,45898
61,28784	0,46387
61,29794	0,46387
61,30803	0,47363
61,31813	0,46875
61,32822	0,45410
61,33832	0,46387
61,34841	0,46875
61,35851	0,46875
61,36860	0,46387
61,37870	0,46387
61,38880	0,46387
61,39889	0,46875
61,40899	0,46387
61,41908	0,46387
61,42918	0,46387
61,43927	0,46387
61,44937	0,46875
61,45946	0,46387
61,46956	0,46387
61,47965	0,46875
61,48975	0,47363
61,49984	0,46387
61,50994	0,46875
61,52003	0,46387
61,53013	0,46387
61,54022	0,46387
61,55032	0,46875
61,56041	0,46387
61,57051	0,46875
61,58060	0,46875
61,59070	0,46387
61,60079	0,46387
61,61089	0,45898
61,62098	0,46387
61,63108	0,47363
61,64117	0,45898
61,65127	0,45898
61,66136	0,46387
61,67146	0,46875
61,68156	0,47363
61,69165	0,46875
61,70175	0,46875
61,71184	0,46875
61,72194	0,46387
61,73203	0,46387
61,74213	0,46875
61,75222	0,46875
61,76232	0,46387
61,77241	0,46875
61,78251	0,46875
61,79260	0,46875
61,80270	0,46387
61,81279	0,46387
61,82289	0,46387
61,83298	0,45898
61,84308	0,46387
61,85317	0,46875
61,86327	0,46387
61,87336	0,46875
61,88346	0,45898
61,89355	0,46875
61,90365	0,46387
61,91374	0,46875
61,92384	0,46387
61,93393	0,46875
61,94403	0,45898
61,95413	0,46875
61,96422	0,46875
61,97432	0,46387
61,98441	0,46875
61,99451	0,46387
62,00460	0,46387
62,01470	0,46875
62,02479	0,46387
62,03489	0,46387
62,04498	0,46875
62,05508	0,46387
62,06517	0,46875
62,07527	0,46387
62,08536	0,46387
62,09546	0,47363
62,10555	0,46387
62,11565	0,46387
62,12574	0,46387
62,13584	0,46875
62,14593	0,46875
62,15603	0,46387
62,16612	0,46387
62,17622	0,46875
62,18631	0,46875
62,19641	0,46875
62,20650	0,46875
62,21660	0,46875
62,22670	0,46875
62,23679	0,45898
62,24689	0,47363
62,25698	0,46387
62,26708	0,46387
62,27717	0,46387
62,28727	0,46387
62,29736	0,46875
62,30746	0,46875
62,31755	0,45410
62,32765	0,46387
62,33774	0,46387
62,34784	0,46875
62,35793	0,46875
62,36803	0,45898
62,37812	0,46387
62,38822	0,46387
62,39831	0,46875
62,40841	0,46875
62,41850	0,46875
62,42860	0,46387
62,43869	0,45898
62,44879	0,46387
62,45888	0,46875
62,46898	0,46387
62,47907	0,46875
62,48917	0,46387
62,49926	0,46875
62,50936	0,46875
62,51946	0,47363
62,52955	0,46387
62,53965	0,46387
62,54974	0,46387
62,55984	0,47852
62,56993	0,46387
62,58003	0,46875
62,59012	0,46875
62,60022	0,46387
62,61031	0,46387
62,62041	0,46387
62,63050	0,46875
62,64060	0,46387
62,65069	0,46387
62,66079	0,46387
62,67088	0,46875
62,68098	0,46387
62,69107	0,46875
62,70117	0,46387
62,71126	0,46387
62,72136	0,46875
62,73145	0,46875
62,74155	0,46387
62,75164	0,46875
62,76174	0,46387
62,77183	0,46387
62,78193	0,46387
62,79203	0,46875
62,80212	0,46387
62,81222	0,46875
62,82231	0,46387
62,83241	0,46387
62,84250	0,46387
62,85260	0,46387
62,86269	0,47363
62,87279	0,46875
62,88288	0,46387
62,89298	0,46387
62,90307	0,46387
62,91317	0,46387
62,92326	0,46387
62,93336	0,46387
62,94345	0,46387
62,95355	0,46875
62,96364	0,45898
62,97374	0,46875
62,98383	0,46387
62,99393	0,46875
63,00402	0,46875
63,01412	0,46387
63,02421	0,46875
63,03431	0,46387
63,04440	0,46387
63,05450	0,46387
63,06460	0,46387
63,07469	0,46387
63,08479	0,45898
63,09488	0,46875
63,10498	0,46875
63,11507	0,46387
63,12517	0,46875
63,13526	0,46387
63,14536	0,47363
63,15545	0,46387
63,16555	0,47363
63,17564	0,46875
63,18574	0,46875
63,19583	0,46387
63,20593	0,46875
63,21602	0,46875
63,22612	0,46875
63,23621	0,46875
63,24631	0,46387
63,25640	0,46875
63,26650	0,46875
63,27659	0,46387
63,28669	0,47363
63,29678	0,46875
63,30688	0,46387
63,31697	0,46387
63,32707	0,47363
63,33716	0,46387
63,34726	0,46387
63,35736	0,46387
63,36745	0,46387
63,37755	0,46387
63,38764	0,46875
63,39774	0,46387
63,40783	0,46387
63,41793	0,46875
63,42802	0,46387
63,43812	0,46875
63,44821	0,46387
63,45831	0,46387
63,46840	0,46875
63,47850	0,45898
63,48859	0,46875
63,49869	0,46387
63,50878	0,46387
63,51888	0,46875
63,52897	0,46387
63,53907	0,46387
63,54916	0,46875
63,55926	0,46875
63,56935	0,46875
63,57945	0,46387
63,58954	0,46875
63,59964	0,46875
63,60973	0,46387
63,61983	0,46387
63,62993	0,46875
63,64002	0,46387
63,65012	0,46875
63,66021	0,46387
63,67031	0,46875
63,68040	0,46875
63,69050	0,46387
63,70059	0,47363
63,71069	0,46387
63,72078	0,46387
63,73088	0,46875
63,74097	0,46387
63,75107	0,46875
63,76116	0,45898
63,77126	0,46387
63,78135	0,46387
63,79145	0,45898
63,80154	0,46875
63,81164	0,45898
63,82173	0,46387
63,83183	0,46875
63,84192	0,45898
63,85202	0,46875
63,86211	0,46387
63,87221	0,46387
63,88230	0,46387
63,89240	0,46387
63,90250	0,46387
63,91259	0,46875
63,92269	0,46875
63,93278	0,46875
63,94288	0,46387
63,95297	0,45898
63,96307	0,46387
63,97316	0,46387
63,98326	0,47363
63,99335	0,46387
64,00345	0,46387
64,01354	0,46875
64,02364	0,46387
64,03373	0,46387
64,04383	0,46875
64,05392	0,46387
64,06402	0,46875
64,07411	0,46387
64,08421	0,46875
64,09430	0,46875
64,10440	0,46387
64,11449	0,46387
64,12459	0,46387
64,13468	0,46875
64,14478	0,46387
64,15487	0,46387
64,16497	0,46875
64,17506	0,46875
64,18516	0,47363
64,19526	0,46875
64,20535	0,46387
64,21545	0,46875
64,22554	0,46875
64,23564	0,46875
64,24573	0,46387
64,25583	0,45898
64,26592	0,46875
64,27602	0,46875
64,28611	0,46875
64,29621	0,46875
64,30630	0,46387
64,31640	0,46875
64,32649	0,46387
64,33659	0,46387
64,34668	0,46387
64,35678	0,46875
64,36687	0,47852
64,37697	0,46875
64,38706	0,45410
64,39716	0,46387
64,40725	0,45898
64,41735	0,46387
64,42744	0,46387
64,43754	0,46387
64,44763	0,46875
64,45773	0,46387
64,46783	0,46387
64,47792	0,47363
64,48802	0,45898
64,49811	0,46387
64,50821	0,46387
64,51830	0,46875
64,52840	0,46387
64,53849	0,46387
64,54859	0,46387
64,55868	0,46387
64,56878	0,46387
64,57887	0,46387
64,58897	0,46387
64,59906	0,46875
64,60916	0,46875
64,61925	0,46387
64,62935	0,45898
64,63944	0,46387
64,64954	0,45898
64,65963	0,46387
64,66973	0,46387
64,67982	0,46387
64,68992	0,46387
64,70001	0,46875
64,71011	0,46875
64,72020	0,47363
64,73030	0,46875
64,74040	0,46875
64,75049	0,45898
64,76059	0,46875
64,77068	0,46387
64,78078	0,47363
64,79087	0,47363
64,80097	0,46387
64,81106	0,46387
64,82116	0,45410
64,83125	0,45898
64,84135	0,46875
64,85144	0,45898
64,86154	0,47363
64,87163	0,46875
64,88173	0,46387
64,89182	0,46875
64,90192	0,45898
64,91201	0,46875
64,92211	0,45898
64,93220	0,46875
64,94230	0,45898
64,95239	0,46387
64,96249	0,46875
64,97258	0,46875
64,98268	0,46387
64,99277	0,46387
65,00287	0,46387
65,01296	0,46387
65,02306	0,46875
65,03316	0,46387
65,04325	0,45898
65,05335	0,47363
65,06344	0,46387
65,07354	0,46875
65,08363	0,46387
65,09373	0,46875
65,10382	0,46875
65,11392	0,46387
65,12401	0,46387
65,13411	0,46387
65,14420	0,46387
65,15430	0,46387
65,16439	0,46387
65,17449	0,46875
65,18458	0,46387
65,19468	0,47363
65,20477	0,46387
65,21487	0,46387
65,22496	0,46875
65,23506	0,46387
65,24515	0,46387
65,25525	0,46875
65,26534	0,46875
65,27544	0,46387
65,28553	0,46875
65,29563	0,46387
65,30573	0,46875
65,31582	0,46387
65,32592	0,46387
65,33601	0,46875
65,34611	0,46875
65,35620	0,46387
65,36630	0,46875
65,37639	0,45898
65,38649	0,46875
65,39658	0,46387
65,40668	0,46875
65,41677	0,46387
65,42687	0,46387
65,43696	0,46875
65,44706	0,46387
65,45715	0,46875
65,46725	0,46387
65,47734	0,46387
65,48744	0,46875
65,49753	0,46387
65,50763	0,46875
65,51772	0,46875
65,52782	0,46387
65,53791	0,46875
65,54801	0,46387
65,55810	0,46875
65,56820	0,46387
65,57830	0,46387
65,58839	0,46387
65,59849	0,46875
65,60858	0,46387
65,61868	0,46875
65,62877	0,46387
65,63887	0,46875
65,64896	0,46387
65,65906	0,46875
65,66915	0,45410
65,67925	0,46387
65,68934	0,46875
65,69944	0,47363
65,70953	0,46387
65,71963	0,47363
65,72972	0,46387
65,73982	0,46387
65,74991	0,46387
65,76001	0,46387
65,77010	0,47363
65,78020	0,46387
65,79029	0,46875
65,80039	0,46875
65,81048	0,47363
65,82058	0,46875
65,83067	0,45898
65,84077	0,46387
65,85086	0,47363
65,86096	0,45898
65,87106	0,47363
65,88115	0,46387
65,89125	0,46387
65,90134	0,46875
65,91144	0,46387
65,92153	0,46875
65,93163	0,46875
65,94172	0,46387
65,95182	0,46387
65,96191	0,45410
65,97201	0,46387
65,98210	0,46387
65,99220	0,46387
66,00229	0,46387
66,01239	0,46387
66,02248	0,46387
66,03258	0,46875
66,04267	0,46387
66,05277	0,46875
66,06286	0,46387
66,07296	0,46875
66,08305	0,46387
66,09315	0,46387
66,10324	0,46875
66,11334	0,46875
66,12343	0,45898
66,13353	0,46875
66,14363	0,46387
66,15372	0,46387
66,16382	0,46875
66,17391	0,45898
66,18401	0,46875
66,19410	0,46387
66,20420	0,46387
66,21429	0,47363
66,22439	0,46387
66,23448	0,46875
66,24458	0,45898
66,25467	0,46875
66,26477	0,46387
66,27486	0,46387
66,28496	0,46387
66,29505	0,46875
66,30515	0,46875
66,31524	0,46387
66,32534	0,47363
66,33543	0,45410
66,34553	0,46387
66,35562	0,46387
66,36572	0,46875
66,37581	0,46875
66,38591	0,46875
66,39600	0,46875
66,40610	0,46387
66,41620	0,46387
66,42629	0,46387
66,43639	0,46387
66,44648	0,46387
66,45658	0,47363
66,46667	0,46387
66,47677	0,46875
66,48686	0,47363
66,49696	0,46875
66,50705	0,46387
66,51715	0,46387
66,52724	0,45898
66,53734	0,46387
66,54743	0,46875
66,55753	0,46387
66,56762	0,46875
66,57772	0,46875
66,58781	0,46387
66,59791	0,46875
66,60800	0,46387
66,61810	0,46387
66,62819	0,46387
66,63829	0,46387
66,64838	0,46875
66,65848	0,46387
66,66857	0,46387
66,67867	0,46387
66,68876	0,46387
66,69886	0,46387
66,70896	0,46387
66,71905	0,46387
66,72915	0,46387
66,73924	0,45898
66,74934	0,46387
66,75943	0,46875
66,76953	0,46387
66,77962	0,46387
66,78972	0,46387
66,79981	0,45898
66,80991	0,46387
66,82000	0,46387
66,83010	0,46875
66,84019	0,46387
66,85029	0,47363
66,86038	0,46387
66,87048	0,46875
66,88057	0,46387
66,89067	0,46387
66,90076	0,45410
66,91086	0,47363
66,92095	0,47363
66,93105	0,46875
66,94114	0,46387
66,95124	0,45898
66,96133	0,46387
66,97143	0,46387
66,98153	0,46387
66,99162	0,47363
67,00172	0,46387
67,01181	0,46875
67,02191	0,46875
67,03200	0,45410
67,04210	0,46875
67,05219	0,47363
67,06229	0,46875
67,07238	0,45898
67,08248	0,46387
67,09257	0,46875
67,10267	0,46387
67,11276	0,46387
67,12286	0,46387
67,13295	0,46875
67,14305	0,47363
67,15314	0,45898
67,16324	0,46875
67,17333	0,46387
67,18343	0,46387
67,19352	0,46387
67,20362	0,45410
67,21371	0,46875
67,22381	0,46875
67,23390	0,46387
67,24400	0,46387
67,25410	0,46387
67,26419	0,46875
67,27429	0,46387
67,28438	0,45898
67,29448	0,46875
67,30457	0,46387
67,31467	0,46387
67,32476	0,46387
67,33486	0,46875
67,34495	0,46387
67,35505	0,46387
67,36514	0,46875
67,37524	0,46387
67,38533	0,46387
67,39543	0,46875
67,40552	0,46875
67,41562	0,46387
67,42571	0,46387
67,43581	0,46387
67,44590	0,46387
67,45600	0,46387
67,46609	0,46387
67,47619	0,47363
67,48628	0,46387
67,49638	0,46387
67,50647	0,46875
67,51657	0,46875
67,52666	0,46387
67,53676	0,46387
67,54686	0,46387
67,55695	0,46875
67,56705	0,46387
67,57714	0,46387
67,58724	0,46875
67,59733	0,46387
67,60743	0,46387
67,61752	0,46387
67,62762	0,46387
67,63771	0,46875
67,64781	0,46387
67,65790	0,46875
67,66800	0,46875
67,67809	0,45898
67,68819	0,46875
67,69828	0,46875
67,70838	0,46387
67,71847	0,46875
67,72857	0,46875
67,73866	0,46387
67,74876	0,46875
67,75885	0,46387
67,76895	0,46387
67,77904	0,46875
67,78914	0,46387
67,79923	0,46387
67,80933	0,46387
67,81943	0,46875
67,82952	0,46387
67,83962	0,46387
67,84971	0,47363
67,85981	0,46387
67,86990	0,46875
67,88000	0,46387
67,89009	0,46875
67,90019	0,46387
67,91028	0,46875
67,92038	0,46875
67,93047	0,46387
67,94057	0,46875
67,95066	0,45898
67,96076	0,46387
67,97085	0,46875
67,98095	0,46387
67,99104	0,47363
68,00114	0,46387
68,01123	0,46387
68,02133	0,46875
68,03142	0,47363
68,04152	0,46387
68,05161	0,46875
68,06171	0,46387
68,07180	0,46387
68,08190	0,46875
68,09200	0,46875
68,10209	0,46387
68,11219	0,46387
68,12228	0,45898
68,13238	0,46875
68,14247	0,46387
68,15257	0,46875
68,16266	0,46875
68,17276	0,46387
68,18285	0,45898
68,19295	0,45898
68,20304	0,47363
68,21314	0,46387
68,22323	0,46875
68,23333	0,46875
68,24342	0,46387
68,25352	0,46875
68,26361	0,46875
68,27371	0,46875
68,28380	0,46875
68,29390	0,46875
68,30399	0,46387
68,31409	0,46875
68,32418	0,46387
68,33428	0,46875
68,34437	0,46387
68,35447	0,46387
68,36457	0,46387
68,37466	0,46387
68,38476	0,46875
68,39485	0,45898
68,40495	0,46387
68,41504	0,46387
68,42514	0,46387
68,43523	0,46875
68,44533	0,46875
68,45542	0,47363
68,46552	0,46387
68,47561	0,45410
68,48571	0,46387
68,49580	0,46387
68,50590	0,46387
68,51599	0,46387
68,52609	0,46875
68,53618	0,46387
68,54628	0,46875
68,55637	0,46387
68,56647	0,46387
68,57656	0,46387
68,58666	0,46875
68,59675	0,46387
68,60685	0,46875
68,61694	0,46387
68,62704	0,45898
68,63713	0,46387
68,64723	0,46387
68,65733	0,46387
68,66742	0,46387
68,67752	0,46387
68,68761	0,46875
68,69771	0,46875
68,70780	0,47363
68,71790	0,46387
68,72799	0,46875
68,73809	0,45898
68,74818	0,46875
68,75828	0,46387
68,76837	0,46387
68,77847	0,46387
68,78856	0,46387
68,79866	0,46387
68,80875	0,46387
68,81885	0,46387
68,82894	0,46387
68,83904	0,46387
68,84913	0,46875
68,85923	0,46387
68,86932	0,46387
68,87942	0,46387
68,88951	0,46387
68,89961	0,46875
68,90970	0,46875
68,91980	0,45898
68,92990	0,46387
68,93999	0,46875
68,95009	0,46875
68,96018	0,46387
68,97028	0,47363
68,98037	0,46875
68,99047	0,45898
69,00056	0,46387
69,01066	0,46875
69,02075	0,46387
69,03085	0,46387
69,04094	0,46387
69,05104	0,46387
69,06113	0,46875
69,07123	0,45898
69,08132	0,46875
69,09142	0,46875
69,10151	0,46387
69,11161	0,46875
69,12170	0,46387
69,13180	0,46875
69,14189	0,46875
69,15199	0,46387
69,16208	0,45898
69,17218	0,46387
69,18227	0,46387
69,19237	0,46387
69,20247	0,46387
69,21256	0,45898
69,22266	0,46387
69,23275	0,46387
69,24285	0,46387
69,25294	0,46387
69,26304	0,46387
69,27313	0,46875
69,28323	0,46875
69,29332	0,46387
69,30342	0,46387
69,31351	0,46387
69,32361	0,46387
69,33370	0,45898
69,34380	0,47363
69,35389	0,46875
69,36399	0,46875
69,37408	0,46387
69,38418	0,47363
69,39427	0,46875
69,40437	0,46387
69,41446	0,46387
69,42456	0,46387
69,43465	0,46387
69,44475	0,46875
69,45484	0,46387
69,46494	0,46387
69,47503	0,46875
69,48513	0,45898
69,49523	0,46387
69,50532	0,46875
69,51542	0,47363
69,52551	0,46875
69,53561	0,46387
69,54570	0,46387
69,55580	0,46875
69,56589	0,45898
69,57599	0,46875
69,58608	0,45898
69,59618	0,46875
69,60627	0,46387
69,61637	0,45898
69,62646	0,46875
69,63656	0,45898
69,64665	0,46875
69,65675	0,46387
69,66684	0,46875
69,67694	0,46387
69,68703	0,45898
69,69713	0,46387
69,70722	0,46875
69,71732	0,46387
69,72741	0,46387
69,73751	0,46387
69,74760	0,46387
69,75770	0,46387
69,76780	0,46387
69,77789	0,46875
69,78799	0,46875
69,79808	0,46387
69,80818	0,46387
69,81827	0,46387
69,82837	0,46387
69,83846	0,46875
69,84856	0,46387
69,85865	0,45898
69,86875	0,46875
69,87884	0,46387
69,88894	0,46875
69,89903	0,46387
69,90913	0,46387
69,91922	0,46387
69,92932	0,46387
69,93941	0,46387
69,94951	0,46387
69,95960	0,46387
69,96970	0,46875
69,97979	0,46387
69,98989	0,46387
69,99998	0,46387
70,01008	0,45898
70,02017	0,46387
70,03027	0,45410
70,04037	0,46875
70,05046	0,46387
70,06056	0,46387
70,07065	0,46387
70,08075	0,46387
70,09084	0,46387
70,10094	0,46387
70,11103	0,46387
70,12113	0,46875
70,13122	0,46387
70,14132	0,46875
70,15141	0,46387
70,16151	0,46387
70,17160	0,46387
70,18170	0,46875
70,19179	0,46875
70,20189	0,46875
70,21198	0,46387
70,22208	0,46387
70,23217	0,46387
70,24227	0,46387
70,25236	0,47363
70,26246	0,46387
70,27255	0,46387
70,28265	0,47363
70,29274	0,46875
70,30284	0,46387
70,31293	0,46387
70,32303	0,46387
70,33313	0,46875
70,34322	0,46387
70,35332	0,46875
70,36341	0,46387
70,37351	0,46387
70,38360	0,46875
70,39370	0,45898
70,40379	0,46387
70,41389	0,46387
70,42398	0,46875
70,43408	0,46875
70,44417	0,45898
70,45427	0,46875
70,46436	0,45898
70,47446	0,46387
70,48455	0,46387
70,49465	0,46387
70,50474	0,46875
70,51484	0,46387
70,52493	0,46387
70,53503	0,46387
70,54512	0,46387
70,55522	0,46875
70,56531	0,46875
70,57541	0,46387
70,58550	0,46387
70,59560	0,46387
70,60570	0,46875
70,61579	0,46875
70,62589	0,46387
70,63598	0,46387
70,64608	0,46875
70,65617	0,46387
70,66627	0,46387
70,67636	0,46387
70,68646	0,46387
70,69655	0,46387
70,70665	0,45898
70,71674	0,46387
70,72684	0,46387
70,73693	0,46387
70,74703	0,47363
70,75712	0,46875
70,76722	0,46875
70,77731	0,46387
70,78741	0,45898
70,79750	0,46875
70,80760	0,46387
70,81769	0,46387
70,82779	0,46387
70,83788	0,46387
70,84798	0,47363
70,85807	0,46387
70,86817	0,47363
70,87827	0,46387
70,88836	0,46387
70,89846	0,47852
70,90855	0,46387
70,91865	0,46875
70,92874	0,46387
70,93884	0,45898
70,94893	0,46875
70,95903	0,46387
70,96912	0,46875
70,97922	0,47363
70,98931	0,46387
70,99941	0,46387
71,00950	0,46387
71,01960	0,46387
71,02969	0,46875
71,03979	0,46387
71,04988	0,46387
71,05998	0,46387
71,07007	0,46387
71,08017	0,46875
71,09026	0,46387
71,10036	0,46387
71,11045	0,46387
71,12055	0,46387
71,13064	0,46387
71,14074	0,46387
71,15083	0,46387
71,16093	0,46875
71,17103	0,46875
71,18112	0,46387
71,19122	0,46875
71,20131	0,46875
71,21141	0,46387
71,22150	0,46387
71,23160	0,46875
71,24169	0,45898
71,25179	0,46387
71,26188	0,46875
71,27198	0,46875
71,28207	0,46387
71,29217	0,46387
71,30226	0,46875
71,31236	0,46875
71,32245	0,46387
71,33255	0,46387
71,34264	0,46387
71,35274	0,46875
71,36283	0,46387
71,37293	0,46387
71,38302	0,46875
71,39312	0,46875
71,40321	0,46387
71,41331	0,46875
71,42340	0,46387
71,43350	0,46387
71,44360	0,46875
71,45369	0,47363
71,46379	0,46387
71,47388	0,46387
71,48398	0,46875
71,49407	0,46875
71,50417	0,46875
71,51426	0,45410
71,52436	0,46387
71,53445	0,46875
71,54455	0,46875
71,55464	0,47363
71,56474	0,46387
71,57483	0,46387
71,58493	0,46875
71,59502	0,46387
71,60512	0,46875
71,61521	0,45898
71,62531	0,46387
71,63540	0,46875
71,64550	0,46387
71,65559	0,46387
71,66569	0,46387
71,67578	0,46875
71,68588	0,46387
71,69597	0,46875
71,70607	0,46387
71,71617	0,46387
71,72626	0,46875
71,73636	0,47363
71,74645	0,46875
71,75655	0,46387
71,76664	0,46387
71,77674	0,46875
71,78683	0,46387
71,79693	0,46875
71,80702	0,46875
71,81712	0,46387
71,82721	0,46875
71,83731	0,46387
71,84740	0,46387
71,85750	0,46387
71,86759	0,46875
71,87769	0,47852
71,88778	0,46387
71,89788	0,46387
71,90797	0,46875
71,91807	0,46387
71,92816	0,46387
71,93826	0,46875
71,94835	0,46387
71,95845	0,45898
71,96854	0,46387
71,97864	0,46875
71,98873	0,46387
71,99883	0,45898
72,00893	0,46387
72,01902	0,46387
72,02912	0,46387
72,03921	0,46875
72,04931	0,46387
72,05940	0,46387
72,06950	0,46387
72,07959	0,46387
72,08969	0,47363
72,09978	0,45898
72,10988	0,46387
72,11997	0,46875
72,13007	0,46387
72,14016	0,46875
72,15026	0,46875
72,16035	0,45898
72,17045	0,46387
72,18054	0,46387
72,19064	0,46875
72,20073	0,46875
72,21083	0,46387
72,22092	0,46875
72,23102	0,45898
72,24111	0,46387
72,25121	0,46387
72,26130	0,45410
72,27140	0,46387
72,28150	0,46387
72,29159	0,46387
72,30169	0,46387
72,31178	0,46387
72,32188	0,46387
72,33197	0,47363
72,34207	0,46875
72,35216	0,46387
72,36226	0,46387
72,37235	0,46387
72,38245	0,46387
72,39254	0,46875
72,40264	0,46875
72,41273	0,45898
72,42283	0,46387
72,43292	0,46387
72,44302	0,46387
72,45311	0,46387
72,46321	0,46875
72,47330	0,46875
72,48340	0,46875
72,49349	0,45898
72,50359	0,46875
72,51368	0,46387
72,52378	0,46875
72,53387	0,46387
72,54397	0,46387
72,55407	0,46875
72,56416	0,46387
72,57426	0,46387
72,58435	0,46387
72,59445	0,47363
72,60454	0,46875
72,61464	0,46387
72,62473	0,46387
72,63483	0,46387
72,64492	0,46387
72,65502	0,45898
72,66511	0,46387
72,67521	0,45898
72,68530	0,46875
72,69540	0,46875
72,70549	0,46387
72,71559	0,47363
72,72568	0,46875
72,73578	0,46875
72,74587	0,46387
72,75597	0,46875
72,76606	0,47852
72,77616	0,46387
72,78625	0,46875
72,79635	0,46387
72,80644	0,47363
72,81654	0,46387
72,82663	0,46387
72,83673	0,46387
72,84683	0,45898
72,85692	0,45410
72,86702	0,46387
72,87711	0,46387
72,88721	0,47363
72,89730	0,46387
72,90740	0,45898
72,91749	0,46875
72,92759	0,46875
72,93768	0,46387
72,94778	0,46875
72,95787	0,46387
72,96797	0,46875
72,97806	0,46387
72,98816	0,46875
72,99825	0,46387
73,00835	0,46387
73,01844	0,46387
73,02854	0,46387
73,03863	0,46387
73,04873	0,46875
73,05882	0,46387
73,06892	0,46387
73,07901	0,46387
73,08911	0,46387
73,09920	0,46875
73,10930	0,46387
73,11940	0,46875
73,12949	0,47852
73,13959	0,45410
73,14968	0,47852
73,15978	0,46387
73,16987	0,46875
73,17997	0,46875
73,19006	0,45898
73,20016	0,47363
73,21025	0,46875
73,22035	0,46387
73,23044	0,46387
73,24054	0,46387
73,25063	0,46875
73,26073	0,46387
73,27082	0,47363
73,28092	0,46387
73,29101	0,46387
73,30111	0,46387
73,31120	0,46387
73,32130	0,46387
73,33139	0,46387
73,34149	0,46387
73,35158	0,46387
73,36168	0,46875
73,37177	0,46387
73,38187	0,46875
73,39197	0,46387
73,40206	0,46387
73,41216	0,46875
73,42225	0,46387
73,43235	0,46387
73,44244	0,46875
73,45254	0,45898
73,46263	0,46875
73,47273	0,46387
73,48282	0,46875
73,49292	0,46875
73,50301	0,46387
73,51311	0,46875
73,52320	0,46387
73,53330	0,46387
73,54339	0,46875
73,55349	0,46387
73,56358	0,46875
73,57368	0,45898
73,58377	0,46387
73,59387	0,46875
73,60396	0,46387
73,61406	0,46387
73,62415	0,46387
73,63425	0,46387
73,64434	0,46387
73,65444	0,45410
73,66453	0,46875
73,67463	0,46387
73,68473	0,47363
73,69482	0,45898
73,70492	0,45898
73,71501	0,46387
73,72511	0,46875
73,73520	0,46387
73,74530	0,46387
73,75539	0,46875
73,76549	0,46875
73,77558	0,46387
73,78568	0,46875
73,79577	0,46875
73,80587	0,46875
73,81596	0,46387
73,82606	0,46875
73,83615	0,46387
73,84625	0,46875
73,85634	0,46387
73,86644	0,46875
73,87653	0,46875
73,88663	0,46387
73,89672	0,46387
73,90682	0,46387
73,91691	0,46875
73,92701	0,46387
73,93710	0,46875
73,94720	0,46387
73,95730	0,46387
73,96739	0,46387
73,97749	0,46875
73,98758	0,46387
73,99768	0,46387
74,00777	0,46875
74,01787	0,46387
74,02796	0,46387
74,03806	0,46387
74,04815	0,46875
74,05825	0,46387
74,06834	0,46387
74,07844	0,46387
74,08853	0,46875
74,09863	0,46387
74,10872	0,46875
74,11882	0,45898
74,12891	0,46387
74,13901	0,46387
74,14910	0,46387
74,15920	0,46875
74,16929	0,46387
74,17939	0,46387
74,18948	0,46387
74,19958	0,46387
74,20967	0,46875
74,21977	0,46875
74,22987	0,46387
74,23996	0,46875
74,25006	0,46387
74,26015	0,46875
74,27025	0,45898
74,28034	0,46387
74,29044	0,46875
74,30053	0,46387
74,31063	0,46875
74,32072	0,46387
74,33082	0,46875
74,34091	0,46387
74,35101	0,46387
74,36110	0,46875
74,37120	0,46875
74,38129	0,46387
74,39139	0,46387
74,40148	0,46387
74,41158	0,46387
74,42167	0,46875
74,43177	0,46387
74,44186	0,46875
74,45196	0,47363
74,46205	0,46875
74,47215	0,46875
74,48224	0,46387
74,49234	0,46387
74,50243	0,46387
74,51253	0,46387
74,52263	0,46387
74,53272	0,46875
74,54282	0,46387
74,55291	0,46875
74,56301	0,46387
74,57310	0,47363
74,58320	0,46387
74,59329	0,46875
74,60339	0,46875
74,61348	0,46387
74,62358	0,46875
74,63367	0,45898
74,64377	0,46387
74,65386	0,46875
74,66396	0,46387
74,67405	0,46387
74,68415	0,46875
74,69424	0,46387
74,70434	0,46875
74,71443	0,45898
74,72453	0,46387
74,73462	0,46387
74,74472	0,47363
74,75481	0,46387
74,76491	0,46387
74,77500	0,46875
74,78510	0,46875
74,79520	0,46875
74,80529	0,46875
74,81539	0,45898
74,82548	0,46875
74,83558	0,46387
74,84567	0,46387
74,85577	0,46387
74,86586	0,46387
74,87596	0,46387
74,88605	0,46387
74,89615	0,46387
74,90624	0,46875
74,91634	0,47363
74,92643	0,45898
74,93653	0,46875
74,94662	0,46387
74,95672	0,46875
74,96681	0,46387
74,97691	0,46387
74,98700	0,46875
74,99710	0,46387
75,00719	0,46387
75,01729	0,46875
75,02738	0,46387
75,03748	0,46875
75,04757	0,46387
75,05767	0,47363
75,06777	0,46387
75,07786	0,46387
75,08796	0,46387
75,09805	0,47363
75,10815	0,45898
75,11824	0,46875
75,12834	0,46387
75,13843	0,46387
75,14853	0,46387
75,15862	0,46387
75,16872	0,46875
75,17881	0,46387
75,18891	0,46875
75,19900	0,46387
75,20910	0,46387
75,21919	0,46875
75,22929	0,46387
75,23938	0,47363
75,24948	0,46875
75,25957	0,46387
75,26967	0,47363
75,27976	0,46387
75,28986	0,45898
75,29995	0,46387
75,31005	0,46387
75,32014	0,45898
75,33024	0,46387
75,34034	0,47852
75,35043	0,46387
75,36053	0,46875
75,37062	0,47363
75,38072	0,46875
75,39081	0,46875
75,40091	0,46875
75,41100	0,46387
75,42110	0,46387
75,43119	0,46387
75,44129	0,45898
75,45138	0,46387
75,46148	0,46875
75,47157	0,46387
75,48167	0,46875
75,49176	0,45898
75,50186	0,46875
75,51195	0,46387
75,52205	0,45898
75,53214	0,46387
75,54224	0,46387
75,55233	0,46875
75,56243	0,46875
75,57252	0,45898
75,58262	0,46875
75,59271	0,46387
75,60281	0,46387
75,61290	0,47363
75,62300	0,45410
75,63310	0,46387
75,64319	0,46875
75,65329	0,46387
75,66338	0,46875
75,67348	0,46387
75,68357	0,46387
75,69367	0,46387
75,70376	0,46387
75,71386	0,46875
75,72395	0,46387
75,73405	0,46387
75,74414	0,46387
75,75424	0,46387
75,76433	0,46387
75,77443	0,46387
75,78452	0,45410
75,79462	0,46875
75,80471	0,45898
75,81481	0,46875
75,82490	0,46875
75,83500	0,46387
75,84509	0,46875
75,85519	0,46387
75,86528	0,46875
75,87538	0,46387
75,88547	0,46387
75,89557	0,46875
75,90567	0,46387
75,91576	0,46875
75,92586	0,46387
75,93595	0,45898
75,94605	0,46875
75,95614	0,46875
75,96624	0,46387
75,97633	0,46387
75,98643	0,46387
75,99652	0,46387
76,00662	0,46387
76,01671	0,46387
76,02681	0,46387
76,03690	0,46387
76,04700	0,46875
76,05709	0,46387
76,06719	0,46387
76,07728	0,46387
76,08738	0,45898
76,09747	0,46387
76,10757	0,46387
76,11766	0,46387
76,12776	0,46387
76,13785	0,46387
76,14795	0,46387
76,15804	0,46875
76,16814	0,46387
76,17824	0,46387
76,18833	0,46387
76,19843	0,46387
76,20852	0,46387
76,21862	0,46387
76,22871	0,46875
76,23881	0,46387
76,24890	0,46387
76,25900	0,47363
76,26909	0,45898
76,27919	0,46875
76,28928	0,45898
76,29938	0,46387
76,30947	0,46387
76,31957	0,45898
76,32966	0,46875
76,33976	0,46875
76,34985	0,46387
76,35995	0,46387
76,37004	0,46387
76,38014	0,47363
76,39023	0,46387
76,40033	0,46387
76,41042	0,46387
76,42052	0,46875
76,43061	0,46387
76,44071	0,46875
76,45080	0,45898
76,46090	0,47363
76,47100	0,46387
76,48109	0,46875
76,49119	0,47363
76,50128	0,46875
76,51138	0,46387
76,52147	0,46387
76,53157	0,46875
76,54166	0,46387
76,55176	0,45898
76,56185	0,46875
76,57195	0,46387
76,58204	0,46387
76,59214	0,46875
76,60223	0,46875
76,61233	0,46387
76,62242	0,47363
76,63252	0,46387
76,64261	0,46387
76,65271	0,46387
76,66280	0,46387
76,67290	0,46875
76,68299	0,46387
76,69309	0,46875
76,70318	0,45898
76,71328	0,45898
76,72337	0,46875
76,73347	0,45410
76,74357	0,47363
76,75366	0,46875
76,76376	0,45410
76,77385	0,46875
76,78395	0,46387
76,79404	0,46875
76,80414	0,46387
76,81423	0,46387
76,82433	0,47852
76,83442	0,46387
76,84452	0,46875
76,85461	0,46387
76,86471	0,46387
76,87480	0,47363
76,88490	0,46387
76,89499	0,46387
76,90509	0,46875
76,91518	0,46387
76,92528	0,46387
76,93537	0,46387
76,94547	0,45410
76,95556	0,46387
76,96566	0,46387
76,97575	0,46387
76,98585	0,46875
76,99594	0,46875
77,00604	0,46875
77,01614	0,46875
77,02623	0,46387
77,03633	0,46387
77,04642	0,45898
77,05652	0,46387
77,06661	0,46387
77,07671	0,46387
77,08680	0,46875
77,09690	0,46387
77,10699	0,46387
77,11709	0,46387
77,12718	0,45410
77,13728	0,46875
77,14737	0,46387
77,15747	0,46387
77,16756	0,46387
77,17766	0,45898
77,18775	0,46387
77,19785	0,46387
77,20794	0,46387
77,21804	0,47363
77,22813	0,46387
77,23823	0,46387
77,24832	0,46387
77,25842	0,46875
77,26851	0,46875
77,27861	0,46387
77,28870	0,46387
77,29880	0,45898
77,30890	0,45898
77,31899	0,46387
77,32909	0,46875
77,33918	0,46875
77,34928	0,46387
77,35937	0,46875
77,36947	0,46875
77,37956	0,45410
77,38966	0,46387
77,39975	0,46387
77,40985	0,46875
77,41994	0,46387
77,43004	0,45898
77,44013	0,46387
77,45023	0,46387
77,46032	0,46387
77,47042	0,46875
77,48051	0,46387
77,49061	0,46875
77,50070	0,46875
77,51080	0,46387
77,52089	0,46875
77,53099	0,46875
77,54108	0,46387
77,55118	0,46875
77,56127	0,46387
77,57137	0,45898
77,58147	0,46387
77,59156	0,46387
77,60166	0,45898
77,61175	0,46387
77,62185	0,46387
77,63194	0,46875
77,64204	0,46387
77,65213	0,46387
77,66223	0,46387
77,67232	0,46387
77,68242	0,46875
77,69251	0,46387
77,70261	0,46875
77,71270	0,46387
77,72280	0,46387
77,73289	0,46875
77,74299	0,45898
77,75308	0,46387
77,76318	0,46387
77,77327	0,46387
77,78337	0,46387
77,79346	0,46387
77,80356	0,46387
77,81365	0,46387
77,82375	0,45898
77,83384	0,47363
77,84394	0,46875
77,85404	0,46387
77,86413	0,47363
77,87423	0,46387
77,88432	0,46387
77,89442	0,46387
77,90451	0,46875
77,91461	0,46875
77,92470	0,46875
77,93480	0,46387
77,94489	0,45898
77,95499	0,45898
77,96508	0,46875
77,97518	0,46875
77,98527	0,46875
77,99537	0,46875
78,00546	0,45898
78,01556	0,46875
78,02565	0,46387
78,03575	0,46875
78,04584	0,46875
78,05594	0,46387
78,06603	0,46387
78,07613	0,46387
78,08622	0,46387
78,09632	0,46387
78,10641	0,46875
78,11651	0,46875
78,12660	0,46875
78,13670	0,46387
78,14680	0,46387
78,15689	0,46387
78,16699	0,46875
78,17708	0,46387
78,18718	0,46387
78,19727	0,46387
78,20737	0,46387
78,21746	0,46387
78,22756	0,46387
78,23765	0,46875
78,24775	0,46387
78,25784	0,46387
78,26794	0,46387
78,27803	0,47363
78,28813	0,46387
78,29822	0,46387
78,30832	0,46387
78,31841	0,46387
78,32851	0,46387
78,33860	0,46387
78,34870	0,46387
78,35879	0,46875
78,36889	0,46875
78,37898	0,46875
78,38908	0,46875
78,39917	0,46875
78,40927	0,46875
78,41937	0,45898
78,42946	0,46875
78,43956	0,45898
78,44965	0,45898
78,45975	0,46875
78,46984	0,46387
78,47994	0,46387
78,49003	0,46387
78,50013	0,47363
78,51022	0,46387
78,52032	0,46387
78,53041	0,46387
78,54051	0,46875
78,55060	0,46387
78,56070	0,46875
78,57079	0,46387
78,58089	0,46875
78,59098	0,46387
78,60108	0,46875
78,61117	0,46387
78,62127	0,46387
78,63136	0,46387
78,64146	0,46875
78,65155	0,46387
78,66165	0,46387
78,67174	0,46387
78,68184	0,46387
78,69194	0,46875
78,70203	0,46387
78,71213	0,46387
78,72222	0,46387
78,73232	0,46387
78,74241	0,46875
78,75251	0,46875
78,76260	0,46387
78,77270	0,46387
78,78279	0,45410
78,79289	0,46875
78,80298	0,45898
78,81308	0,46875
78,82317	0,46387
78,83327	0,46387
78,84336	0,46387
78,85346	0,45410
78,86355	0,46875
78,87365	0,47852
78,88374	0,46387
78,89384	0,46875
78,90393	0,46387
78,91403	0,46387
78,92412	0,46875
78,93422	0,46875
78,94431	0,46387
78,95441	0,47363
78,96450	0,46875
78,97460	0,45898
78,98470	0,46875
78,99479	0,45410
79,00489	0,46875
79,01498	0,47363
79,02508	0,46875
79,03517	0,46387
79,04527	0,46875
79,05536	0,46387
79,06546	0,46387
79,07555	0,45898
79,08565	0,46875
79,09574	0,46387
79,10584	0,46875
79,11593	0,46387
79,12603	0,46875
79,13612	0,47363
79,14622	0,46387
79,15631	0,46387
79,16641	0,46387
79,17650	0,46387
79,18660	0,46387
79,19669	0,46387
79,20679	0,47852
79,21688	0,45898
79,22698	0,46875
79,23707	0,46387
79,24717	0,46387
79,25727	0,46387
79,26736	0,46875
79,27746	0,46387
79,28755	0,46875
79,29765	0,45410
79,30774	0,46387
79,31784	0,45410
79,32793	0,46387
79,33803	0,46387
79,34812	0,46387
79,35822	0,46875
79,36831	0,46387
79,37841	0,46387
79,38850	0,46875
79,39860	0,46387
79,40869	0,46387
79,41879	0,46387
79,42888	0,46387
79,43898	0,46387
79,44907	0,46387
79,45917	0,46387
79,46926	0,46875
79,47936	0,46875
79,48945	0,46387
79,49955	0,46387
79,50964	0,46387
79,51974	0,46875
79,52984	0,46387
79,53993	0,46387
79,55003	0,46387
79,56012	0,46387
79,57022	0,46875
79,58031	0,46387
79,59041	0,46875
79,60050	0,46387
79,61060	0,46387
79,62069	0,46875
79,63079	0,46875
79,64088	0,45898
79,65098	0,46875
79,66107	0,46387
79,67117	0,46875
79,68126	0,46387
79,69136	0,46875
79,70145	0,46875
79,71155	0,45898
79,72164	0,46387
79,73174	0,46875
79,74183	0,46875
79,75193	0,46387
79,76202	0,46387
79,77212	0,46875
79,78221	0,46387
79,79231	0,46387
79,80240	0,46875
79,81250	0,46387
79,82260	0,46875
79,83269	0,46387
79,84279	0,46387
79,85288	0,46387
79,86298	0,46875
79,87307	0,46387
79,88317	0,46387
79,89326	0,46387
79,90336	0,46387
79,91345	0,45898
79,92355	0,46387
79,93364	0,46387
79,94374	0,46875
79,95383	0,47363
79,96393	0,46387
79,97402	0,45410
79,98412	0,46875
79,99421	0,45898
80,00431	0,46875
80,01440	0,46387
80,02450	0,46387
80,03459	0,46875
80,04469	0,46387
80,05478	0,45898
80,06488	0,46387
80,07497	0,46387
80,08507	0,46875
80,09517	0,46387
80,10526	0,46387
80,11536	0,46875
80,12545	0,47363
80,13555	0,46875
80,14564	0,47363
80,15574	0,46875
80,16583	0,46875
80,17593	0,46387
80,18602	0,46387
80,19612	0,46875
80,20621	0,46387
80,21631	0,47363
80,22640	0,47363
80,23650	0,46387
80,24659	0,46875
80,25669	0,46875
80,26678	0,47363
80,27688	0,46387
80,28697	0,46387
80,29707	0,46875
80,30716	0,46387
80,31726	0,46875
80,32735	0,45410
80,33745	0,46875
80,34754	0,46875
80,35764	0,45898
80,36774	0,46387
80,37783	0,46875
80,38793	0,46875
80,39802	0,46387
80,40812	0,46875
80,41821	0,46875
80,42831	0,45898
80,43840	0,45898
80,44850	0,46875
80,45859	0,46387
80,46869	0,46387
80,47878	0,46387
80,48888	0,46875
80,49897	0,46875
80,50907	0,46387
80,51916	0,46387
80,52926	0,45898
80,53935	0,46387
80,54945	0,45410
80,55954	0,46387
80,56964	0,46387
80,57973	0,46387
80,58983	0,47852
80,59992	0,46387
80,61002	0,46387
80,62011	0,46387
80,63021	0,46387
80,64030	0,46387
80,65040	0,46387
80,66050	0,47852
80,67059	0,46875
80,68069	0,46875
80,69078	0,46387
80,70088	0,45898
80,71097	0,46387
80,72107	0,46387
80,73116	0,46387
80,74126	0,46387
80,75135	0,46387
80,76145	0,46875
80,77154	0,46387
80,78164	0,46387
80,79173	0,46875
80,80183	0,46875
80,81192	0,46875
80,82202	0,46387
80,83211	0,46387
80,84221	0,47363
80,85230	0,46387
80,86240	0,46875
80,87249	0,45898
80,88259	0,46875
80,89268	0,46875
80,90278	0,45898
80,91287	0,46387
80,92297	0,46387
80,93307	0,46875
80,94316	0,46875
80,95326	0,45898
80,96335	0,47363
80,97345	0,45898
80,98354	0,46387
80,99364	0,46875
81,00373	0,45898
81,01383	0,46875
81,02392	0,46875
81,03402	0,46875
81,04411	0,46875
81,05421	0,45410
81,06430	0,46387
81,07440	0,46875
81,08449	0,45898
81,09459	0,46875
81,10468	0,46875
81,11478	0,46875
81,12487	0,46387
81,13497	0,46387
81,14506	0,46387
81,15516	0,46875
81,16525	0,47852
81,17535	0,46387
81,18544	0,46875
81,19554	0,46387
81,20564	0,46875
81,21573	0,46387
81,22583	0,46875
81,23592	0,46387
81,24602	0,46875
81,25611	0,46387
81,26621	0,45898
81,27630	0,46387
81,28640	0,46387
81,29649	0,46875
81,30659	0,46875
81,31668	0,46387
81,32678	0,46387
81,33687	0,46387
81,34697	0,46875
81,35706	0,46387
81,36716	0,46387
81,37725	0,46875
81,38735	0,46875
81,39744	0,46387
81,40754	0,46875
81,41763	0,46387
81,42773	0,46875
81,43782	0,45898
81,44792	0,46387
81,45801	0,46875
81,46811	0,45898
81,47820	0,46875
81,48830	0,46387
81,49840	0,45898
81,50849	0,46875
81,51859	0,46387
81,52868	0,46875
81,53878	0,46875
81,54887	0,46387
81,55897	0,46875
81,56906	0,45898
81,57916	0,46387
81,58925	0,46875
81,59935	0,46875
81,60944	0,46387
81,61954	0,46387
81,62963	0,46875
81,63973	0,46875
81,64982	0,46387
81,65992	0,46387
81,67001	0,46875
81,68011	0,45898
81,69020	0,46387
81,70030	0,46875
81,71039	0,46387
81,72049	0,46387
81,73058	0,45898
81,74068	0,45898
81,75077	0,46387
81,76087	0,46387
81,77097	0,46387
81,78106	0,45898
81,79116	0,46875
81,80125	0,45410
81,81135	0,46387
81,82144	0,46875
81,83154	0,45898
81,84163	0,46387
81,85173	0,46387
81,86182	0,46387
81,87192	0,46387
81,88201	0,46387
81,89211	0,46875
81,90220	0,46387
81,91230	0,46875
81,92239	0,46387
81,93249	0,46875
81,94258	0,45410
81,95268	0,46875
81,96277	0,46875
81,97287	0,46387
81,98296	0,46875
81,99306	0,46387
82,00315	0,46387
82,01325	0,46875
82,02334	0,46875
82,03344	0,47363
82,04354	0,45898
82,05363	0,46387
82,06373	0,46875
82,07382	0,46387
82,08392	0,46875
82,09401	0,46387
82,10411	0,45898
82,11420	0,46875
82,12430	0,46387
82,13439	0,46875
82,14449	0,45410
82,15458	0,45410
82,16468	0,45898
82,17477	0,46387
82,18487	0,46875
82,19496	0,46387
82,20506	0,47363
82,21515	0,45410
82,22525	0,46387
82,23534	0,46875
82,24544	0,46387
82,25553	0,46875
82,26563	0,46387
82,27572	0,46387
82,28582	0,46875
82,29591	0,46875
82,30601	0,46875
82,31611	0,46387
82,32620	0,46387
82,33630	0,46387
82,34639	0,46875
82,35649	0,46387
82,36658	0,47363
82,37668	0,46387
82,38677	0,47363
82,39687	0,46387
82,40696	0,45898
82,41706	0,46875
82,42715	0,45898
82,43725	0,46875
82,44734	0,46387
82,45744	0,46387
82,46753	0,46387
82,47763	0,46875
82,48772	0,46875
82,49782	0,46875
82,50791	0,46387
82,51801	0,46387
82,52810	0,46387
82,53820	0,47363
82,54829	0,46875
82,55839	0,46387
82,56848	0,46875
82,57858	0,46387
82,58867	0,46387
82,59877	0,46875
82,60887	0,46387
82,61896	0,47363
82,62906	0,46387
82,63915	0,46387
82,64925	0,46875
82,65934	0,46875
82,66944	0,46387
82,67953	0,46387
82,68963	0,45898
82,69972	0,46875
82,70982	0,46875
82,71991	0,46875
82,73001	0,46387
82,74010	0,45410
82,75020	0,47852
82,76029	0,46387
82,77039	0,46875
82,78048	0,46387
82,79058	0,46875
82,80067	0,46387
82,81077	0,46875
82,82086	0,46387
82,83096	0,46875
82,84105	0,46387
82,85115	0,46387
82,86124	0,45898
82,87134	0,46387
82,88144	0,46387
82,89153	0,46875
82,90163	0,46387
82,91172	0,47363
82,92182	0,46387
82,93191	0,46875
82,94201	0,47363
82,95210	0,46387
82,96220	0,46875
82,97229	0,46875
82,98239	0,46875
82,99248	0,46387
83,00258	0,46387
83,01267	0,46875
83,02277	0,46387
83,03286	0,46387
83,04296	0,45410
83,05305	0,46875
83,06315	0,46387
83,07324	0,46387
83,08334	0,47363
83,09343	0,46387
83,10353	0,46387
83,11362	0,46387
83,12372	0,45898
83,13381	0,46875
83,14391	0,46875
83,15401	0,45898
83,16410	0,46875
83,17420	0,46387
83,18429	0,46875
83,19439	0,46875
83,20448	0,46875
83,21458	0,46387
83,22467	0,46387
83,23477	0,46387
83,24486	0,46387
83,25496	0,46875
83,26505	0,46387
83,27515	0,46387
83,28524	0,46387
83,29534	0,46387
83,30543	0,46387
83,31553	0,46387
83,32562	0,46387
83,33572	0,46875
83,34581	0,46387
83,35591	0,46875
83,36600	0,46387
83,37610	0,46387
83,38619	0,46387
83,39629	0,46875
83,40638	0,45898
83,41648	0,46387
83,42657	0,46387
83,43667	0,46387
83,44677	0,46875
83,45686	0,46387
83,46696	0,46387
83,47705	0,47363
83,48715	0,46387
83,49724	0,46875
83,50734	0,46387
83,51743	0,47363
83,52753	0,46387
83,53762	0,46387
83,54772	0,46387
83,55781	0,46875
83,56791	0,46387
83,57800	0,46875
83,58810	0,46387
83,59819	0,46387
83,60829	0,46387
83,61838	0,46875
83,62848	0,46875
83,63857	0,45898
83,64867	0,46387
83,65876	0,47363
83,66886	0,46387
83,67895	0,46387
83,68905	0,46875
83,69914	0,46387
83,70924	0,46875
83,71934	0,46387
83,72943	0,46875
83,73953	0,46387
83,74962	0,46387
83,75972	0,46387
83,76981	0,46387
83,77991	0,46387
83,79000	0,46387
83,80010	0,46387
83,81019	0,47852
83,82029	0,46875
83,83038	0,46387
83,84048	0,46387
83,85057	0,46387
83,86067	0,46387
83,87076	0,46387
83,88086	0,46387
83,89095	0,46387
83,90105	0,46387
83,91114	0,46875
83,92124	0,46387
83,93133	0,46387
83,94143	0,47363
83,95152	0,46387
83,96162	0,46875
83,97171	0,46387
83,98181	0,46387
83,99191	0,46875
84,00200	0,46387
84,01210	0,46387
84,02219	0,46875
84,03229	0,46387
84,04238	0,46875
84,05248	0,46875
84,06257	0,46875
84,07267	0,46387
84,08276	0,46875
84,09286	0,46387
84,10295	0,46387
84,11305	0,46875
84,12314	0,46875
84,13324	0,46875
84,14333	0,46387
84,15343	0,46875
84,16352	0,46387
84,17362	0,46387
84,18371	0,46387
84,19381	0,46875
84,20390	0,46875
84,21400	0,46387
84,22409	0,46387
84,23419	0,47363
84,24428	0,46875
84,25438	0,46387
84,26447	0,46387
84,27457	0,46875
84,28467	0,46387
84,29476	0,46387
84,30486	0,46875
84,31495	0,46387
84,32505	0,45898
84,33514	0,46387
84,34524	0,45898
84,35533	0,46387
84,36543	0,46387
84,37552	0,46387
84,38562	0,46387
84,39571	0,46387
84,40581	0,46387
84,41590	0,46387
84,42600	0,46875
84,43609	0,45898
84,44619	0,46875
84,45628	0,46875
84,46638	0,46387
84,47647	0,46387
84,48657	0,45898
84,49666	0,46387
84,50676	0,46875
84,51685	0,46875
84,52695	0,46875
84,53704	0,46387
84,54714	0,46387
84,55724	0,46875
84,56733	0,46875
84,57743	0,46875
84,58752	0,46875
84,59762	0,46387
84,60771	0,46875
84,61781	0,46387
84,62790	0,46387
84,63800	0,46387
84,64809	0,46875
84,65819	0,46875
84,66828	0,46387
84,67838	0,46875
84,68847	0,46875
84,69857	0,46387
84,70866	0,46387
84,71876	0,46875
84,72885	0,46875
84,73895	0,46387
84,74904	0,46387
84,75914	0,46387
84,76923	0,46875
84,77933	0,46387
84,78942	0,46387
84,79952	0,46387
84,80961	0,46387
84,81971	0,47363
84,82981	0,45898
84,83990	0,46387
84,85000	0,46875
84,86009	0,46387
84,87019	0,46387
84,88028	0,46875
84,89038	0,46387
84,90047	0,46387
84,91057	0,46387
84,92066	0,46875
84,93076	0,46387
84,94085	0,46875
84,95095	0,46387
84,96104	0,46387
84,97114	0,46875
84,98123	0,46387
84,99133	0,46387
85,00142	0,46387
85,01152	0,46387
85,02161	0,46387
85,03171	0,45898
85,04180	0,46387
85,05190	0,46387
85,06199	0,46387
85,07209	0,46387
85,08218	0,46875
85,09228	0,45898
85,10237	0,47363
85,11247	0,46387
85,12257	0,46387
85,13266	0,46387
85,14276	0,46387
85,15285	0,47363
85,16295	0,46387
85,17304	0,46387
85,18314	0,46875
85,19323	0,46875
85,20333	0,46875
85,21342	0,46875
85,22352	0,46387
85,23361	0,46387
85,24371	0,46387
85,25380	0,46875
85,26390	0,46387
85,27399	0,45410
85,28409	0,46387
85,29418	0,46387
85,30428	0,46875
85,31437	0,46875
85,32447	0,45898
85,33456	0,46875
85,34466	0,46387
85,35475	0,46387
85,36485	0,46875
85,37494	0,47363
85,38504	0,46875
85,39514	0,46875
85,40523	0,46387
85,41533	0,46387
85,42542	0,46387
85,43552	0,45898
85,44561	0,46875
85,45571	0,45898
85,46580	0,46875
85,47590	0,46387
85,48599	0,46387
85,49609	0,45898
85,50618	0,46387
85,51628	0,46875
85,52637	0,45898
85,53647	0,46387
85,54656	0,47363
85,55666	0,46387
85,56675	0,46387
85,57685	0,46387
85,58694	0,46875
85,59704	0,46387
85,60713	0,45898
85,61723	0,46875
85,62732	0,47852
85,63742	0,46387
85,64751	0,46387
85,65761	0,46875
85,66771	0,46387
85,67780	0,46875
85,68790	0,46387
85,69799	0,46875
85,70809	0,47363
85,71818	0,46875
85,72828	0,46875
85,73837	0,46387
85,74847	0,46875
85,75856	0,46387
85,76866	0,46387
85,77875	0,46387
85,78885	0,46387
85,79894	0,46387
85,80904	0,46387
85,81913	0,46387
85,82923	0,47852
85,83932	0,45410
85,84942	0,46875
85,85951	0,46387
85,86961	0,46875
85,87970	0,46387
85,88980	0,45898
85,89989	0,46875
85,90999	0,46387
85,92008	0,46387
85,93018	0,46875
85,94027	0,46387
85,95037	0,46387
85,96047	0,46387
85,97056	0,46387
85,98066	0,46387
85,99075	0,45898
86,00085	0,46387
86,01094	0,46387
86,02104	0,46387
86,03113	0,46875
86,04123	0,46387
86,05132	0,46387
86,06142	0,46875
86,07151	0,46875
86,08161	0,46387
86,09170	0,46387
86,10180	0,46387
86,11189	0,46387
86,12199	0,46387
86,13208	0,46387
86,14218	0,46875
86,15227	0,46387
86,16237	0,46387
86,17246	0,46875
86,18256	0,46875
86,19265	0,46387
86,20275	0,46387
86,21284	0,46875
86,22294	0,46875
86,23304	0,46387
86,24313	0,46875
86,25323	0,46387
86,26332	0,46387
86,27342	0,46875
86,28351	0,45898
86,29361	0,47852
86,30370	0,46387
86,31380	0,46387
86,32389	0,46387
86,33399	0,46387
86,34408	0,46387
86,35418	0,46387
86,36427	0,46387
86,37437	0,46875
86,38446	0,46387
86,39456	0,45898
86,40465	0,47852
86,41475	0,46387
86,42484	0,46387
86,43494	0,46387
86,44503	0,46387
86,45513	0,46387
86,46522	0,46387
86,47532	0,46875
86,48541	0,46387
86,49551	0,46387
86,50561	0,47363
86,51570	0,45898
86,52580	0,46875
86,53589	0,46387
86,54599	0,46387
86,55608	0,46875
86,56618	0,46387
86,57627	0,46387
86,58637	0,46387
86,59646	0,46387
86,60656	0,46875
86,61665	0,45898
86,62675	0,46875
86,63684	0,46875
86,64694	0,45898
86,65703	0,46875
86,66713	0,45898
86,67722	0,46875
86,68732	0,46387
86,69741	0,46387
86,70751	0,46387
86,71760	0,46387
86,72770	0,46875
86,73779	0,46387
86,74789	0,47363
86,75798	0,46875
86,76808	0,45898
86,77817	0,46387
86,78827	0,46875
86,79837	0,46387
86,80846	0,46875
86,81856	0,45898
86,82865	0,46875
86,83875	0,47363
86,84884	0,46875
86,85894	0,46387
86,86903	0,46875
86,87913	0,47363
86,88922	0,46387
86,89932	0,47363
86,90941	0,46875
86,91951	0,46387
86,92960	0,46387
86,93970	0,46387
86,94979	0,46875
86,95989	0,46875
86,96998	0,46387
86,98008	0,46875
86,99017	0,46387
87,00027	0,46875
87,01036	0,46387
87,02046	0,46875
87,03055	0,46387
87,04065	0,46875
87,05074	0,46875
87,06084	0,46875
87,07094	0,46387
87,08103	0,46387
87,09113	0,46387
87,10122	0,46875
87,11132	0,46387
87,12141	0,46875
87,13151	0,46387
87,14160	0,46387
87,15170	0,46875
87,16179	0,45898
87,17189	0,46875
87,18198	0,45898
87,19208	0,45898
87,20217	0,46875
87,21227	0,46387
87,22236	0,47363
87,23246	0,46387
87,24255	0,47363
87,25265	0,46875
87,26274	0,46387
87,27284	0,46875
87,28293	0,46875
87,29303	0,46387
87,30312	0,46875
87,31322	0,46387
87,32331	0,47363
87,33341	0,46387
87,34351	0,46875
87,35360	0,46875
87,36370	0,46387
87,37379	0,46387
87,38389	0,46875
87,39398	0,46387
87,40408	0,46387
87,41417	0,46875
87,42427	0,46387
87,43436	0,46875
87,44446	0,45410
87,45455	0,46387
87,46465	0,46387
87,47474	0,46387
87,48484	0,46875
87,49493	0,47363
87,50503	0,46387
87,51512	0,46387
87,52522	0,46387
87,53531	0,46387
87,54541	0,46387
87,55550	0,46387
87,56560	0,46387
87,57569	0,46875
87,58579	0,46387
87,59588	0,46875
87,60598	0,46387
87,61607	0,46387
87,62617	0,46387
87,63627	0,46875
87,64636	0,46875
87,65646	0,46387
87,66655	0,47363
87,67665	0,47363
87,68674	0,46875
87,69684	0,46875
87,70693	0,46875
87,71703	0,46387
87,72712	0,46387
87,73722	0,45898
87,74731	0,46387
87,75741	0,46387
87,76750	0,46387
87,77760	0,46875
87,78769	0,46387
87,79779	0,46387
87,80788	0,46387
87,81798	0,46387
87,82807	0,46875
87,83817	0,45898
87,84826	0,46875
87,85836	0,46387
87,86845	0,46387
87,87855	0,46387
87,88864	0,46387
87,89874	0,47363
87,90884	0,46387
87,91893	0,46875
87,92903	0,46387
87,93912	0,46387
87,94922	0,46875
87,95931	0,46387
87,96941	0,46875
87,97950	0,45410
87,98960	0,46875
87,99969	0,46875
88,00979	0,46387
88,01988	0,46387
88,02998	0,46387
88,04007	0,45898
88,05017	0,47363
88,06026	0,46387
88,07036	0,46875
88,08045	0,46387
88,09055	0,46387
88,10064	0,46387
88,11074	0,46387
88,12083	0,46875
88,13093	0,46387
88,14102	0,46387
88,15112	0,46875
88,16121	0,46387
88,17131	0,46387
88,18141	0,46875
88,19150	0,46875
88,20160	0,46387
88,21169	0,46387
88,22179	0,46387
88,23188	0,46387
88,24198	0,46387
88,25207	0,46387
88,26217	0,46387
88,27226	0,46387
88,28236	0,46387
88,29245	0,46387
88,30255	0,46387
88,31264	0,47363
88,32274	0,45898
88,33283	0,47363
88,34293	0,46387
88,35302	0,46387
88,36312	0,47363
88,37321	0,46875
88,38331	0,46875
88,39340	0,47363
88,40350	0,46875
88,41359	0,45898
88,42369	0,46875
88,43378	0,46875
88,44388	0,46387
88,45397	0,46387
88,46407	0,46387
88,47417	0,46387
88,48426	0,46387
88,49436	0,46387
88,50445	0,46387
88,51455	0,46387
88,52464	0,46875
88,53474	0,46387
88,54483	0,46875
88,55493	0,46387
88,56502	0,46875
88,57512	0,46387
88,58521	0,46387
88,59531	0,46387
88,60540	0,46875
88,61550	0,46875
88,62559	0,46875
88,63569	0,46387
88,64578	0,46387
88,65588	0,46387
88,66597	0,46387
88,67607	0,46875
88,68616	0,46387
88,69626	0,46875
88,70635	0,46387
88,71645	0,46875
88,72654	0,46875
88,73664	0,45898
88,74674	0,46387
88,75683	0,46387
88,76693	0,46875
88,77702	0,46875
88,78712	0,46875
88,79721	0,46875
88,80731	0,46387
88,81740	0,46387
88,82750	0,46875
