fecha de inicio :	2022-02-17
hora de inicio :	13:37:43,76414
tasa de muestreo :	100 Hz
	
tiempo desde inicio (s)	voltaje (V)
0,00000	1,28418
0,00999	1,28418
0,01999	1,27930
0,02998	1,27930
0,03998	1,27930
0,04997	1,27441
0,05996	1,27930
0,06996	1,27930
0,07995	1,27930
0,08995	1,27930
0,09994	1,27930
0,10993	1,27930
0,11993	1,28418
0,12992	1,27441
0,13992	1,27930
0,14991	1,27930
0,15991	1,27930
0,16990	1,27930
0,17989	1,28906
0,18989	1,27930
0,19988	1,27930
0,20988	1,27441
0,21987	1,28418
0,22986	1,28418
0,23986	1,27930
0,24985	1,27930
0,25985	1,27930
0,26984	1,27930
0,27983	1,27930
0,28983	1,28418
0,29982	1,27441
0,30982	1,27930
0,31981	1,28418
0,32980	1,27441
0,33980	1,27930
0,34979	1,27930
0,35979	1,27441
0,36978	1,28418
0,37977	1,27930
0,38977	1,27930
0,39976	1,27930
0,40976	1,27930
0,41975	1,27930
0,42974	1,27930
0,43974	1,27930
0,44973	1,27441
0,45973	1,27930
0,46972	1,27930
0,47972	1,28418
0,48971	1,28418
0,49970	1,27930
0,50970	1,28418
0,51969	1,27930
0,52969	1,27441
0,53968	1,28418
0,54967	1,27930
0,55967	1,28418
0,56966	1,28418
0,57966	1,27930
0,58965	1,28418
0,59964	1,27930
0,60964	1,28418
0,61963	1,27930
0,62963	1,27441
0,63962	1,27930
0,64961	1,27930
0,65961	1,27930
0,66960	1,27930
0,67960	1,27930
0,68959	1,28418
0,69958	1,27930
0,70958	1,27930
0,71957	1,27930
0,72957	1,27930
0,73956	1,27930
0,74956	1,27441
0,75955	1,27930
0,76954	1,27930
0,77954	1,27930
0,78953	1,28418
0,79953	1,28418
0,80952	1,27930
0,81951	1,28418
0,82951	1,27441
0,83950	1,28418
0,84950	1,27930
0,85949	1,28418
0,86948	1,27930
0,87948	1,27930
0,88947	1,27930
0,89947	1,27930
0,90946	1,27441
0,91945	1,27441
0,92945	1,28418
0,93944	1,27930
0,94944	1,27930
0,95943	1,28906
0,96942	1,27930
0,97942	1,28418
0,98941	1,27441
0,99941	1,28418
1,00940	1,28418
1,01940	1,27930
1,02939	1,27441
1,03938	1,28418
1,04938	1,28906
1,05937	1,28418
1,06937	1,28418
1,07936	1,27930
1,08935	1,28418
1,09935	1,27930
1,10934	1,27441
1,11934	1,27930
1,12933	1,27930
1,13932	1,27930
1,14932	1,27930
1,15931	1,27441
1,16931	1,28418
1,17930	1,27930
1,18929	1,27930
1,19929	1,28418
1,20928	1,28418
1,21928	1,27930
1,22927	1,27930
1,23926	1,27930
1,24926	1,27930
1,25925	1,28418
1,26925	1,27930
1,27924	1,27930
1,28923	1,28418
1,29923	1,28418
1,30922	1,27930
1,31922	1,28906
1,32921	1,27930
1,33921	1,27930
1,34920	1,27930
1,35919	1,27930
1,36919	1,27930
1,37918	1,28418
1,38918	1,27930
1,39917	1,27930
1,40916	1,27441
1,41916	1,28906
1,42915	1,27930
1,43915	1,27441
1,44914	1,28418
1,45913	1,27930
1,46913	1,27441
1,47912	1,28418
1,48912	1,27930
1,49911	1,28418
1,50910	1,27930
1,51910	1,28418
1,52909	1,27930
1,53909	1,28418
1,54908	1,27930
1,55907	1,27930
1,56907	1,27930
1,57906	1,27441
1,58906	1,27930
1,59905	1,27930
1,60905	1,28418
1,61904	1,28418
1,62903	1,27930
1,63903	1,28418
1,64902	1,27930
1,65902	1,28418
1,66901	1,28418
1,67900	1,28418
1,68900	1,28418
1,69899	1,27930
1,70899	1,28418
1,71898	1,27930
1,72897	1,28418
1,73897	1,27930
1,74896	1,28418
1,75896	1,27930
1,76895	1,28418
1,77894	1,27930
1,78894	1,28418
1,79893	1,27930
1,80893	1,27930
1,81892	1,27441
1,82891	1,27930
1,83891	1,27930
1,84890	1,28906
1,85890	1,27930
1,86889	1,28418
1,87889	1,28418
1,88888	1,28418
1,89887	1,28418
1,90887	1,27930
1,91886	1,27441
1,92886	1,28418
1,93885	1,27441
1,94884	1,28906
1,95884	1,27930
1,96883	1,27441
1,97883	1,28906
1,98882	1,27930
1,99881	1,27930
2,00881	1,27930
2,01880	1,27441
2,02880	1,27441
2,03879	1,27930
2,04878	1,27441
2,05878	1,27930
2,06877	1,28418
2,07877	1,27930
2,08876	1,27930
2,09875	1,27441
2,10875	1,28418
2,11874	1,27930
2,12874	1,27930
2,13873	1,28418
2,14872	1,27930
2,15872	1,27441
2,16871	1,27930
2,17871	1,27930
2,18870	1,27930
2,19870	1,27441
2,20869	1,27930
2,21868	1,27930
2,22868	1,27930
2,23867	1,27930
2,24867	1,27441
2,25866	1,27930
2,26865	1,28906
2,27865	1,27441
2,28864	1,27930
2,29864	1,28418
2,30863	1,27441
2,31862	1,28418
2,32862	1,28906
2,33861	1,27930
2,34861	1,27930
2,35860	1,28418
2,36859	1,28418
2,37859	1,27441
2,38858	1,27930
2,39858	1,27441
2,40857	1,27930
2,41856	1,27930
2,42856	1,27441
2,43855	1,28418
2,44855	1,27930
2,45854	1,27930
2,46854	1,28418
2,47853	1,27930
2,48852	1,27930
2,49852	1,27930
2,50851	1,27930
2,51851	1,27441
2,52850	1,28418
2,53849	1,28418
2,54849	1,28418
2,55848	1,27930
2,56848	1,27930
2,57847	1,27441
2,58846	1,27930
2,59846	1,27930
2,60845	1,27930
2,61845	1,27930
2,62844	1,27930
2,63843	1,27930
2,64843	1,27930
2,65842	1,27930
2,66842	1,28418
2,67841	1,27441
2,68840	1,27441
2,69840	1,28418
2,70839	1,27930
2,71839	1,27441
2,72838	1,28418
2,73837	1,27930
2,74837	1,28418
2,75836	1,27441
2,76836	1,27930
2,77835	1,27930
2,78835	1,27930
2,79834	1,28418
2,80833	1,27930
2,81833	1,28418
2,82832	1,28418
2,83832	1,27930
2,84831	1,27930
2,85830	1,27441
2,86830	1,27930
2,87829	1,27930
2,88829	1,27930
2,89828	1,27930
2,90827	1,27930
2,91827	1,27441
2,92826	1,27930
2,93826	1,27930
2,94825	1,27930
2,95824	1,28906
2,96824	1,28418
2,97823	1,27930
2,98823	1,28418
2,99822	1,28418
3,00821	1,28418
3,01821	1,27930
3,02820	1,28418
3,03820	1,27930
3,04819	1,27930
3,05819	1,28418
3,06818	1,27441
3,07817	1,28418
3,08817	1,27930
3,09816	1,27930
3,10816	1,28418
3,11815	1,27930
3,12814	1,27930
3,13814	1,27930
3,14813	1,27441
3,15813	1,27930
3,16812	1,27930
3,17811	1,28418
3,18811	1,27930
3,19810	1,28906
3,20810	1,27930
3,21809	1,27930
3,22808	1,28418
3,23808	1,27930
3,24807	1,27930
3,25807	1,27930
3,26806	1,27930
3,27805	1,27930
3,28805	1,29395
3,29804	1,27930
3,30804	1,27930
3,31803	1,27441
3,32803	1,27930
3,33802	1,27930
3,34801	1,27930
3,35801	1,28906
3,36800	1,27930
3,37800	1,27930
3,38799	1,27930
3,39798	1,27930
3,40798	1,27930
3,41797	1,27930
3,42797	1,27930
3,43796	1,27930
3,44795	1,27930
3,45795	1,27930
3,46794	1,28418
3,47794	1,27441
3,48793	1,27930
3,49792	1,27441
3,50792	1,27441
3,51791	1,28418
3,52791	1,27930
3,53790	1,27930
3,54789	1,27930
3,55789	1,27930
3,56788	1,28418
3,57788	1,28418
3,58787	1,27930
3,59786	1,28418
3,60786	1,27441
3,61785	1,27930
3,62785	1,27441
3,63784	1,28418
3,64784	1,27930
3,65783	1,27930
3,66782	1,28418
3,67782	1,27930
3,68781	1,27930
3,69781	1,28418
3,70780	1,27930
3,71779	1,27930
3,72779	1,27930
3,73778	1,27930
3,74778	1,27930
3,75777	1,28418
3,76776	1,27930
3,77776	1,27930
3,78775	1,27441
3,79775	1,28418
3,80774	1,27930
3,81773	1,27930
3,82773	1,27930
3,83772	1,27930
3,84772	1,28418
3,85771	1,27930
3,86770	1,27930
3,87770	1,28418
3,88769	1,27930
3,89769	1,27930
3,90768	1,28418
3,91768	1,27930
3,92767	1,27930
3,93766	1,28906
3,94766	1,28418
3,95765	1,27930
3,96765	1,27930
3,97764	1,28418
3,98763	1,27930
3,99763	1,27930
4,00762	1,27930
4,01762	1,27930
4,02761	1,28418
4,03760	1,28418
4,04760	1,27930
4,05759	1,27930
4,06759	1,27930
4,07758	1,28418
4,08757	1,28906
4,09757	1,27930
4,10756	1,28418
4,11756	1,27930
4,12755	1,27441
4,13754	1,28418
4,14754	1,27930
4,15753	1,28418
4,16753	1,27930
4,17752	1,27930
4,18752	1,28418
4,19751	1,28418
4,20750	1,27930
4,21750	1,28418
4,22749	1,27930
4,23749	1,27441
4,24748	1,27930
4,25747	1,27930
4,26747	1,27930
4,27746	1,27930
4,28746	1,27930
4,29745	1,28418
4,30744	1,27441
4,31744	1,28418
4,32743	1,27930
4,33743	1,28418
4,34742	1,27930
4,35741	1,27930
4,36741	1,27930
4,37740	1,27441
4,38740	1,28418
4,39739	1,29395
4,40738	1,28418
4,41738	1,28418
4,42737	1,28418
4,43737	1,27930
4,44736	1,28418
4,45735	1,28418
4,46735	1,28418
4,47734	1,27930
4,48734	1,28418
4,49733	1,27930
4,50733	1,28418
4,51732	1,27930
4,52731	1,28418
4,53731	1,28418
4,54730	1,27441
4,55730	1,27930
4,56729	1,28906
4,57728	1,27930
4,58728	1,27930
4,59727	1,27930
4,60727	1,28906
4,61726	1,28418
4,62725	1,28906
4,63725	1,27930
4,64724	1,28418
4,65724	1,27930
4,66723	1,27441
4,67722	1,28418
4,68722	1,28418
4,69721	1,28906
4,70721	1,27930
4,71720	1,28418
4,72719	1,27930
4,73719	1,28906
4,74718	1,27930
4,75718	1,28906
4,76717	1,28418
4,77717	1,28418
4,78716	1,27930
4,79715	1,28418
4,80715	1,27930
4,81714	1,28906
4,82714	1,28418
4,83713	1,27930
4,84712	1,27930
4,85712	1,27930
4,86711	1,27930
4,87711	1,28418
4,88710	1,27441
4,89709	1,28418
4,90709	1,27930
4,91708	1,27441
4,92708	1,27930
4,93707	1,27930
4,94706	1,28418
4,95706	1,27930
4,96705	1,27930
4,97705	1,28418
4,98704	1,28906
4,99703	1,27930
5,00703	1,28418
5,01702	1,27441
5,02702	1,28418
5,03701	1,27930
5,04701	1,27930
5,05700	1,27930
5,06699	1,27930
5,07699	1,27441
5,08698	1,28418
5,09698	1,27441
5,10697	1,28418
5,11696	1,27930
5,12696	1,28418
5,13695	1,27441
5,14695	1,27930
5,15694	1,28418
5,16693	1,27930
5,17693	1,27930
5,18692	1,27930
5,19692	1,27930
5,20691	1,28418
5,21690	1,28418
5,22690	1,28418
5,23689	1,27930
5,24689	1,27930
5,25688	1,27930
5,26687	1,27930
5,27687	1,28418
5,28686	1,27930
5,29686	1,27441
5,30685	1,28906
5,31684	1,27441
5,32684	1,28418
5,33683	1,27930
5,34683	1,27441
5,35682	1,27930
5,36682	1,27441
5,37681	1,27930
5,38680	1,27441
5,39680	1,28418
5,40679	1,28906
5,41679	1,28418
5,42678	1,28906
5,43677	1,27930
5,44677	1,27930
5,45676	1,28418
5,46676	1,27930
5,47675	1,27930
5,48674	1,27930
5,49674	1,28906
5,50673	1,28418
5,51673	1,28418
5,52672	1,27930
5,53671	1,27441
5,54671	1,28418
5,55670	1,28418
5,56670	1,28906
5,57669	1,27930
5,58668	1,27930
5,59668	1,27930
5,60667	1,27930
5,61667	1,27441
5,62666	1,28418
5,63666	1,27930
5,64665	1,28906
5,65664	1,27930
5,66664	1,28418
5,67663	1,27930
5,68663	1,28418
5,69662	1,28906
5,70661	1,27930
5,71661	1,27930
5,72660	1,28418
5,73660	1,27930
5,74659	1,28418
5,75658	1,28906
5,76658	1,28418
5,77657	1,28418
5,78657	1,27930
5,79656	1,27930
5,80655	1,27930
5,81655	1,27930
5,82654	1,27930
5,83654	1,28418
5,84653	1,27930
5,85652	1,28906
5,86652	1,28418
5,87651	1,27930
5,88651	1,27930
5,89650	1,27930
5,90649	1,27930
5,91649	1,28418
5,92648	1,27930
5,93648	1,27930
5,94647	1,27930
5,95647	1,28418
5,96646	1,27930
5,97645	1,27930
5,98645	1,28418
5,99644	1,27930
6,00644	1,27930
6,01643	1,27930
6,02642	1,27930
6,03642	1,28418
6,04641	1,27441
6,05641	1,28418
6,06640	1,28906
6,07639	1,28418
6,08639	1,27930
6,09638	1,27441
6,10638	1,28418
6,11637	1,27930
6,12636	1,28906
6,13636	1,27930
6,14635	1,27930
6,15635	1,28418
6,16634	1,28418
6,17633	1,27930
6,18633	1,28418
6,19632	1,27930
6,20632	1,27930
6,21631	1,27441
6,22631	1,28418
6,23630	1,27930
6,24629	1,28418
6,25629	1,27441
6,26628	1,27930
6,27628	1,27930
6,28627	1,28418
6,29626	1,28418
6,30626	1,27930
6,31625	1,28418
6,32625	1,28418
6,33624	1,27930
6,34623	1,28418
6,35623	1,28418
6,36622	1,27930
6,37622	1,28418
6,38621	1,27930
6,39620	1,28418
6,40620	1,27930
6,41619	1,27930
6,42619	1,28418
6,43618	1,27930
6,44617	1,27930
6,45617	1,27930
6,46616	1,28418
6,47616	1,27441
6,48615	1,27930
6,49615	1,28418
6,50614	1,26953
6,51613	1,28418
6,52613	1,28906
6,53612	1,27930
6,54612	1,28418
6,55611	1,27930
6,56610	1,27930
6,57610	1,27930
6,58609	1,27930
6,59609	1,27930
6,60608	1,27930
6,61607	1,28418
6,62607	1,27930
6,63606	1,27930
6,64606	1,27930
6,65605	1,27441
6,66604	1,27930
6,67604	1,27930
6,68603	1,27930
6,69603	1,27930
6,70602	1,28418
6,71601	1,28418
6,72601	1,28418
6,73600	1,28906
6,74600	1,27930
6,75599	1,27930
6,76598	1,28418
6,77598	1,27930
6,78597	1,28418
6,79597	1,27930
6,80596	1,27930
6,81596	1,28418
6,82595	1,28418
6,83594	1,27930
6,84594	1,28418
6,85593	1,28418
6,86593	1,27930
6,87592	1,28418
6,88591	1,28418
6,89591	1,29395
6,90590	1,28906
6,91590	1,28418
6,92589	1,27930
6,93588	1,27930
6,94588	1,28418
6,95587	1,28418
6,96587	1,27930
6,97586	1,27930
6,98585	1,27441
6,99585	1,27930
7,00584	1,27930
7,01584	1,27930
7,02583	1,28906
7,03582	1,28418
7,04582	1,27930
7,05581	1,27930
7,06581	1,28418
7,07580	1,27930
7,08580	1,28418
7,09579	1,27930
7,10578	1,28418
7,11578	1,27930
7,12577	1,27930
7,13577	1,27441
7,14576	1,27930
7,15575	1,28418
7,16575	1,27930
7,17574	1,28418
7,18574	1,28906
7,19573	1,27930
7,20572	1,27441
7,21572	1,28418
7,22571	1,27441
7,23571	1,28906
7,24570	1,27930
7,25569	1,27930
7,26569	1,28418
7,27568	1,27441
7,28568	1,28418
7,29567	1,27930
7,30566	1,28418
7,31566	1,27930
7,32565	1,27930
7,33565	1,28418
7,34564	1,28418
7,35564	1,27930
7,36563	1,28418
7,37562	1,27441
7,38562	1,28418
7,39561	1,27930
7,40561	1,27930
7,41560	1,28418
7,42559	1,27930
7,43559	1,28418
7,44558	1,28418
7,45558	1,27930
7,46557	1,27930
7,47556	1,27930
7,48556	1,27930
7,49555	1,28418
7,50555	1,28906
7,51554	1,28418
7,52553	1,27930
7,53553	1,28418
7,54552	1,27930
7,55552	1,27930
7,56551	1,27441
7,57550	1,28418
7,58550	1,27930
7,59549	1,28906
7,60549	1,27930
7,61548	1,28418
7,62547	1,28418
7,63547	1,27930
7,64546	1,27930
7,65546	1,28418
7,66545	1,28418
7,67545	1,28418
7,68544	1,27930
7,69543	1,27930
7,70543	1,28418
7,71542	1,28418
7,72542	1,28418
7,73541	1,27930
7,74540	1,27930
7,75540	1,28418
7,76539	1,28418
7,77539	1,27930
7,78538	1,28418
7,79537	1,28418
7,80537	1,27930
7,81536	1,27930
7,82536	1,28418
7,83535	1,27930
7,84534	1,28418
7,85534	1,28418
7,86533	1,27930
7,87533	1,28418
7,88532	1,28906
7,89531	1,27930
7,90531	1,28906
7,91530	1,27441
7,92530	1,28418
7,93529	1,27930
7,94529	1,27930
7,95528	1,27930
7,96527	1,27930
7,97527	1,27930
7,98526	1,27930
7,99526	1,27930
8,00525	1,28418
8,01524	1,27930
8,02524	1,28418
8,03523	1,28906
8,04523	1,27930
8,05522	1,28418
8,06521	1,28418
8,07521	1,27930
8,08520	1,28418
8,09520	1,28418
8,10519	1,28418
8,11518	1,28418
8,12518	1,27930
8,13517	1,27441
8,14517	1,27930
8,15516	1,28906
8,16515	1,27930
8,17515	1,28418
8,18514	1,28418
8,19514	1,27930
8,20513	1,27930
8,21512	1,27930
8,22512	1,27441
8,23511	1,28418
8,24511	1,27930
8,25510	1,28418
8,26510	1,28418
8,27509	1,27930
8,28508	1,28418
8,29508	1,28906
8,30507	1,27930
8,31507	1,28418
8,32506	1,27930
8,33505	1,28906
8,34505	1,27930
8,35504	1,27930
8,36504	1,28418
8,37503	1,27930
8,38502	1,28418
8,39502	1,27930
8,40501	1,28418
8,41501	1,28418
8,42500	1,28418
8,43499	1,27930
8,44499	1,27930
8,45498	1,27930
8,46498	1,28418
8,47497	1,27930
8,48496	1,27930
8,49496	1,27930
8,50495	1,27930
8,51495	1,28418
8,52494	1,28418
8,53494	1,27930
8,54493	1,28418
8,55492	1,27930
8,56492	1,27930
8,57491	1,27930
8,58491	1,27930
8,59490	1,28906
8,60489	1,27930
8,61489	1,27930
8,62488	1,28418
8,63488	1,27930
8,64487	1,28906
8,65486	1,28418
8,66486	1,28418
8,67485	1,28418
8,68485	1,27930
8,69484	1,28418
8,70483	1,28418
8,71483	1,27930
8,72482	1,27930
8,73482	1,27930
8,74481	1,27930
8,75480	1,27930
8,76480	1,27930
8,77479	1,28418
8,78479	1,28418
8,79478	1,28418
8,80478	1,27930
8,81477	1,27930
8,82476	1,29395
8,83476	1,28418
8,84475	1,28418
8,85475	1,28418
8,86474	1,27930
8,87473	1,28418
8,88473	1,27930
8,89472	1,28418
8,90472	1,28418
8,91471	1,28418
8,92470	1,27930
8,93470	1,27930
8,94469	1,27930
8,95469	1,28418
8,96468	1,27441
8,97467	1,28418
8,98467	1,27930
8,99466	1,28418
9,00466	1,28906
9,01465	1,27930
9,02464	1,28418
9,03464	1,27930
9,04463	1,27930
9,05463	1,28906
9,06462	1,28418
9,07461	1,28418
9,08461	1,28418
9,09460	1,27930
9,10460	1,28418
9,11459	1,27930
9,12459	1,27930
9,13458	1,28418
9,14457	1,27930
9,15457	1,28906
9,16456	1,28418
9,17456	1,28418
9,18455	1,27930
9,19454	1,28418
9,20454	1,27930
9,21453	1,27441
9,22453	1,27930
9,23452	1,28418
9,24451	1,28418
9,25451	1,28418
9,26450	1,28418
9,27450	1,27930
9,28449	1,27930
9,29448	1,28418
9,30448	1,28418
9,31447	1,28418
9,32447	1,27441
9,33446	1,28418
9,34445	1,28418
9,35445	1,28418
9,36444	1,28418
9,37444	1,27930
9,38443	1,27930
9,39443	1,28906
9,40442	1,27441
9,41441	1,28418
9,42441	1,27930
9,43440	1,28906
9,44440	1,28418
9,45439	1,27930
9,46438	1,28418
9,47438	1,27930
9,48437	1,28418
9,49437	1,28418
9,50436	1,27441
9,51435	1,28418
9,52435	1,28418
9,53434	1,27930
9,54434	1,28418
9,55433	1,27930
9,56432	1,27930
9,57432	1,28906
9,58431	1,27930
9,59431	1,27441
9,60430	1,27930
9,61429	1,28418
9,62429	1,29395
9,63428	1,27930
9,64428	1,28418
9,65427	1,27930
9,66427	1,28418
9,67426	1,28418
9,68425	1,28418
9,69425	1,28418
9,70424	1,28418
9,71424	1,28418
9,72423	1,27930
9,73422	1,28418
9,74422	1,27930
9,75421	1,28418
9,76421	1,27441
9,77420	1,28418
9,78419	1,27441
9,79419	1,27930
9,80418	1,28906
9,81418	1,27930
9,82417	1,28418
9,83416	1,27930
9,84416	1,27441
9,85415	1,27930
9,86415	1,27441
9,87414	1,28906
9,88413	1,27930
9,89413	1,28418
9,90412	1,27930
9,91412	1,28418
9,92411	1,28418
9,93410	1,27930
9,94410	1,27930
9,95409	1,28418
9,96409	1,27930
9,97408	1,28418
9,98408	1,27930
9,99407	1,27441
10,00406	1,27930
10,01406	1,27930
10,02405	1,28418
10,03405	1,27930
10,04404	1,27930
10,05403	1,28418
10,06403	1,28418
10,07402	1,27441
10,08402	1,27930
10,09401	1,28418
10,10400	1,27930
10,11400	1,28418
10,12399	1,27930
10,13399	1,28418
10,14398	1,28418
10,15397	1,27930
10,16397	1,28418
10,17396	1,27930
10,18396	1,28418
10,19395	1,27441
10,20394	1,27930
10,21394	1,28418
10,22393	1,28906
10,23393	1,28418
10,24392	1,28418
10,25392	1,28418
10,26391	1,27930
10,27390	1,27930
10,28390	1,28418
10,29389	1,27930
10,30389	1,27930
10,31388	1,27930
10,32387	1,27930
10,33387	1,28418
10,34386	1,27930
10,35386	1,27930
10,36385	1,28418
10,37384	1,27441
10,38384	1,27930
10,39383	1,28418
10,40383	1,27441
10,41382	1,29395
10,42381	1,27930
10,43381	1,28418
10,44380	1,28418
10,45380	1,28418
10,46379	1,28418
10,47378	1,27930
10,48378	1,27930
10,49377	1,28418
10,50377	1,27930
10,51376	1,28418
10,52375	1,27930
10,53375	1,28418
10,54374	1,28418
10,55374	1,27930
10,56373	1,27930
10,57373	1,27930
10,58372	1,27930
10,59371	1,27930
10,60371	1,27930
10,61370	1,27441
10,62370	1,28418
10,63369	1,27930
10,64368	1,28418
10,65368	1,27930
10,66367	1,28418
10,67367	1,28418
10,68366	1,27930
10,69365	1,28418
10,70365	1,28418
10,71364	1,27930
10,72364	1,28418
10,73363	1,27930
10,74362	1,28418
10,75362	1,27930
10,76361	1,27930
10,77361	1,29395
10,78360	1,27930
10,79359	1,28418
10,80359	1,27930
10,81358	1,27441
10,82358	1,28418
10,83357	1,27930
10,84357	1,28418
10,85356	1,27930
10,86355	1,27930
10,87355	1,28418
10,88354	1,27930
10,89354	1,27930
10,90353	1,27930
10,91352	1,28906
10,92352	1,27930
10,93351	1,27930
10,94351	1,27930
10,95350	1,28418
10,96349	1,28906
10,97349	1,27930
10,98348	1,27930
10,99348	1,27930
11,00347	1,28418
11,01346	1,27441
11,02346	1,28418
11,03345	1,28418
11,04345	1,27930
11,05344	1,28906
11,06343	1,27930
11,07343	1,27930
11,08342	1,28418
11,09342	1,27930
11,10341	1,28906
11,11341	1,28418
11,12340	1,27930
11,13339	1,28418
11,14339	1,27930
11,15338	1,28418
11,16338	1,27930
11,17337	1,27930
11,18336	1,28418
11,19336	1,27930
11,20335	1,28418
11,21335	1,27930
11,22334	1,27930
11,23333	1,28418
11,24333	1,28418
11,25332	1,28418
11,26332	1,28906
11,27331	1,28418
11,28330	1,27930
11,29330	1,27930
11,30329	1,28418
11,31329	1,27930
11,32328	1,27930
11,33327	1,27930
11,34327	1,28418
11,35326	1,27930
11,36326	1,27930
11,37325	1,28906
11,38324	1,27930
11,39324	1,27930
11,40323	1,28418
11,41323	1,27930
11,42322	1,28418
11,43322	1,27930
11,44321	1,27441
11,45320	1,27930
11,46320	1,27930
11,47319	1,27930
11,48319	1,27930
11,49318	1,28418
11,50317	1,27930
11,51317	1,28906
11,52316	1,27930
11,53316	1,27441
11,54315	1,27930
11,55314	1,28418
11,56314	1,27441
11,57313	1,27930
11,58313	1,27441
11,59312	1,28418
11,60311	1,27441
11,61311	1,28418
11,62310	1,28418
11,63310	1,27930
11,64309	1,28418
11,65308	1,27930
11,66308	1,27930
11,67307	1,28906
11,68307	1,27930
11,69306	1,28418
11,70306	1,27930
11,71305	1,27930
11,72304	1,28418
11,73304	1,27441
11,74303	1,28906
11,75303	1,28418
11,76302	1,27930
11,77301	1,28418
11,78301	1,28906
11,79300	1,27930
11,80300	1,28418
11,81299	1,27930
11,82298	1,28418
11,83298	1,27930
11,84297	1,28418
11,85297	1,28418
11,86296	1,27930
11,87295	1,27930
11,88295	1,27930
11,89294	1,27930
11,90294	1,27930
11,91293	1,27930
11,92292	1,27441
11,93292	1,27930
11,94291	1,27930
11,95291	1,27930
11,96290	1,27930
11,97290	1,27930
11,98289	1,28418
11,99288	1,27930
12,00288	1,27930
12,01287	1,27930
12,02287	1,27930
12,03286	1,28418
12,04285	1,27441
12,05285	1,27930
12,06284	1,27930
12,07284	1,27930
12,08283	1,26953
12,09282	1,27930
12,10282	1,27441
12,11281	1,28418
12,12281	1,27930
12,13280	1,28906
12,14279	1,27930
12,15279	1,28418
12,16278	1,27930
12,17278	1,27930
12,18277	1,28906
12,19276	1,27930
12,20276	1,27930
12,21275	1,27930
12,22275	1,28418
12,23274	1,27441
12,24273	1,28906
12,25273	1,28418
12,26272	1,28418
12,27272	1,27441
12,28271	1,28418
12,29271	1,28418
12,30270	1,27930
12,31269	1,28906
12,32269	1,28418
12,33268	1,28418
12,34268	1,27441
12,35267	1,27441
12,36266	1,27930
12,37266	1,27930
12,38265	1,28418
12,39265	1,28418
12,40264	1,28418
12,41263	1,27930
12,42263	1,27930
12,43262	1,27930
12,44262	1,28418
12,45261	1,27930
12,46260	1,27930
12,47260	1,28906
12,48259	1,28418
12,49259	1,28418
12,50258	1,27930
12,51257	1,28418
12,52257	1,27930
12,53256	1,28418
12,54256	1,28418
12,55255	1,28418
12,56255	1,28906
12,57254	1,28418
12,58253	1,28906
12,59253	1,28418
12,60252	1,27930
12,61252	1,27930
12,62251	1,27930
12,63250	1,28418
12,64250	1,28418
12,65249	1,28906
12,66249	1,28418
12,67248	1,28906
12,68247	1,27930
12,69247	1,27930
12,70246	1,27441
12,71246	1,27441
12,72245	1,27930
12,73244	1,27930
12,74244	1,27441
12,75243	1,28418
12,76243	1,27441
12,77242	1,27930
12,78241	1,27930
12,79241	1,28418
12,80240	1,27930
12,81240	1,27930
12,82239	1,28418
12,83239	1,27441
12,84238	1,28418
12,85237	1,27930
12,86237	1,28418
12,87236	1,27930
12,88236	1,28906
12,89235	1,27930
12,90234	1,28418
12,91234	1,27441
12,92233	1,28418
12,93233	1,28418
12,94232	1,28906
12,95231	1,27930
12,96231	1,28906
12,97230	1,27930
12,98230	1,28906
12,99229	1,27930
13,00228	1,27930
13,01228	1,28418
13,02227	1,27930
13,03227	1,27930
13,04226	1,28418
13,05225	1,28418
13,06225	1,28418
13,07224	1,27441
13,08224	1,27930
13,09223	1,27930
13,10222	1,27930
13,11222	1,28418
13,12221	1,27930
13,13221	1,28418
13,14220	1,27930
13,15220	1,27441
13,16219	1,27930
13,17218	1,27441
13,18218	1,28418
13,19217	1,27930
13,20217	1,28418
13,21216	1,28418
13,22215	1,28418
13,23215	1,28418
13,24214	1,28418
13,25214	1,27930
13,26213	1,28418
13,27212	1,27930
13,28212	1,28418
13,29211	1,28418
13,30211	1,27930
13,31210	1,28418
13,32209	1,28418
13,33209	1,27930
13,34208	1,28418
13,35208	1,28418
13,36207	1,28906
13,37206	1,28418
13,38206	1,28418
13,39205	1,28418
13,40205	1,28418
13,41204	1,27930
13,42204	1,27930
13,43203	1,27441
13,44202	1,27930
13,45202	1,28418
13,46201	1,28418
13,47201	1,27930
13,48200	1,27930
13,49199	1,28418
13,50199	1,27930
13,51198	1,27930
13,52198	1,28418
13,53197	1,27930
13,54196	1,28418
13,55196	1,27930
13,56195	1,28418
13,57195	1,28418
13,58194	1,27930
13,59193	1,29395
13,60193	1,27930
13,61192	1,27930
13,62192	1,28418
13,63191	1,27930
13,64190	1,28906
13,65190	1,28906
13,66189	1,28418
13,67189	1,28418
13,68188	1,27930
13,69187	1,28418
13,70187	1,27930
13,71186	1,28418
13,72186	1,27441
13,73185	1,27930
13,74185	1,28418
13,75184	1,28418
13,76183	1,28418
13,77183	1,28418
13,78182	1,27930
13,79182	1,28418
13,80181	1,28418
13,81180	1,28418
13,82180	1,28418
13,83179	1,27930
13,84179	1,27930
13,85178	1,27930
13,86177	1,27930
13,87177	1,27930
13,88176	1,27441
13,89176	1,28418
13,90175	1,28418
13,91174	1,28418
13,92174	1,27930
13,93173	1,28418
13,94173	1,27930
13,95172	1,28418
13,96171	1,28418
13,97171	1,27441
13,98170	1,28418
13,99170	1,27930
14,00169	1,28906
14,01169	1,27930
14,02168	1,28418
14,03167	1,28418
14,04167	1,27930
14,05166	1,28418
14,06166	1,28418
14,07165	1,27441
14,08164	1,28418
14,09164	1,27441
14,10163	1,28418
14,11163	1,27930
14,12162	1,28418
14,13161	1,28418
14,14161	1,28418
14,15160	1,28418
14,16160	1,27441
14,17159	1,28418
14,18158	1,28418
14,19158	1,28418
14,20157	1,27930
14,21157	1,28418
14,22156	1,28418
14,23155	1,28418
14,24155	1,27930
14,25154	1,28906
14,26154	1,27930
14,27153	1,28418
14,28153	1,27930
14,29152	1,27930
14,30151	1,27930
14,31151	1,27930
14,32150	1,27441
14,33150	1,27441
14,34149	1,28418
14,35148	1,27930
14,36148	1,27930
14,37147	1,27930
14,38147	1,27930
14,39146	1,27930
14,40145	1,27930
14,41145	1,28418
14,42144	1,28418
14,43144	1,27930
14,44143	1,28418
14,45142	1,27930
14,46142	1,28418
14,47141	1,27930
14,48141	1,28906
14,49140	1,29395
14,50139	1,27930
14,51139	1,28906
14,52138	1,28418
14,53138	1,27930
14,54137	1,27930
14,55136	1,27930
14,56136	1,27930
14,57135	1,27930
14,58135	1,28418
14,59134	1,28418
14,60134	1,27930
14,61133	1,27930
14,62132	1,28418
14,63132	1,27930
14,64131	1,28418
14,65131	1,27930
14,66130	1,27930
14,67129	1,27930
14,68129	1,28418
14,69128	1,27930
14,70128	1,28418
14,71127	1,28418
14,72126	1,27930
14,73126	1,28418
14,74125	1,28906
14,75125	1,27441
14,76124	1,28418
14,77123	1,28418
14,78123	1,27930
14,79122	1,28906
14,80122	1,28906
14,81121	1,28906
14,82120	1,27930
14,83120	1,27930
14,84119	1,27930
14,85119	1,27930
14,86118	1,27441
14,87118	1,28418
14,88117	1,27930
14,89116	1,27441
14,90116	1,28418
14,91115	1,27441
14,92115	1,28418
14,93114	1,28418
14,94113	1,27930
14,95113	1,28418
14,96112	1,27930
14,97112	1,28418
14,98111	1,27930
14,99110	1,27930
15,00110	1,27930
15,01109	1,27930
15,02109	1,27930
15,03108	1,28906
15,04107	1,28418
15,05107	1,28418
15,06106	1,28418
15,07106	1,27441
15,08105	1,28418
15,09104	1,28906
15,10104	1,28418
15,11103	1,27930
15,12103	1,28418
15,13102	1,28906
15,14102	1,28418
15,15101	1,28418
15,16100	1,28906
15,17100	1,27930
15,18099	1,28418
15,19099	1,27930
15,20098	1,27930
15,21097	1,28418
15,22097	1,27930
15,23096	1,28418
15,24096	1,28418
15,25095	1,27930
15,26094	1,28418
15,27094	1,27930
15,28093	1,28418
15,29093	1,28418
15,30092	1,27930
15,31091	1,28418
15,32091	1,27930
15,33090	1,28418
15,34090	1,27930
15,35089	1,28418
15,36088	1,28418
15,37088	1,27930
15,38087	1,27930
15,39087	1,28906
15,40086	1,27930
15,41085	1,29395
15,42085	1,27441
15,43084	1,28418
15,44084	1,28418
15,45083	1,27930
15,46083	1,27930
15,47082	1,28418
15,48081	1,27930
15,49081	1,28418
15,50080	1,27930
15,51080	1,27930
15,52079	1,27930
15,53078	1,28418
15,54078	1,27930
15,55077	1,28418
15,56077	1,28418
15,57076	1,28418
15,58075	1,28418
15,59075	1,28906
15,60074	1,28418
15,61074	1,28418
15,62073	1,28906
15,63072	1,27441
15,64072	1,27930
15,65071	1,28418
15,66071	1,27930
15,67070	1,28418
15,68069	1,28418
15,69069	1,28418
15,70068	1,28418
15,71068	1,27441
15,72067	1,28418
15,73067	1,27930
15,74066	1,27930
15,75065	1,28906
15,76065	1,27930
15,77064	1,28906
15,78064	1,28418
15,79063	1,27930
15,80062	1,28906
15,81062	1,27930
15,82061	1,28418
15,83061	1,28418
15,84060	1,27930
15,85059	1,28418
15,86059	1,27930
15,87058	1,28418
15,88058	1,27930
15,89057	1,27441
15,90056	1,28906
15,91056	1,27441
15,92055	1,28418
15,93055	1,28418
15,94054	1,27930
15,95053	1,29395
15,96053	1,27930
15,97052	1,28418
15,98052	1,28418
15,99051	1,27930
16,00050	1,28418
16,01050	1,27930
16,02049	1,27930
16,03049	1,27930
16,04048	1,27930
16,05048	1,28418
16,06047	1,28418
16,07046	1,28418
16,08046	1,27930
16,09045	1,29395
16,10045	1,27930
16,11044	1,28418
16,12043	1,28418
16,13043	1,28418
16,14042	1,28418
16,15042	1,28906
16,16041	1,29395
16,17040	1,28906
16,18040	1,28418
16,19039	1,28906
16,20039	1,28418
16,21038	1,27930
16,22037	1,27930
16,23037	1,28418
16,24036	1,27930
16,25036	1,28418
16,26035	1,28906
16,27034	1,27930
16,28034	1,27930
16,29033	1,27441
16,30033	1,27930
16,31032	1,28418
16,32032	1,27930
16,33031	1,28418
16,34030	1,27930
16,35030	1,28418
16,36029	1,28906
16,37029	1,27930
16,38028	1,28418
16,39027	1,29395
16,40027	1,28906
16,41026	1,28906
16,42026	1,27930
16,43025	1,28418
16,44024	1,28418
16,45024	1,27930
16,46023	1,27930
16,47023	1,27930
16,48022	1,28418
16,49021	1,27930
16,50021	1,29395
16,51020	1,27930
16,52020	1,28418
16,53019	1,28418
16,54018	1,27930
16,55018	1,29395
16,56017	1,27930
16,57017	1,29395
16,58016	1,27930
16,59016	1,28906
16,60015	1,27930
16,61014	1,27930
16,62014	1,27930
16,63013	1,28418
16,64013	1,28418
16,65012	1,28418
16,66011	1,27930
16,67011	1,28906
16,68010	1,27930
16,69010	1,28906
16,70009	1,28418
16,71008	1,27930
16,72008	1,27930
16,73007	1,27930
16,74007	1,28906
16,75006	1,29395
16,76005	1,27930
16,77005	1,28906
16,78004	1,28418
16,79004	1,28418
16,80003	1,28906
16,81002	1,27441
16,82002	1,28418
16,83001	1,28418
16,84001	1,28906
16,85000	1,27930
16,85999	1,28418
16,86999	1,27930
16,87998	1,27930
16,88998	1,28906
16,89997	1,28418
16,90997	1,28418
16,91996	1,28418
16,92995	1,28906
16,93995	1,28418
16,94994	1,28418
16,95994	1,28418
16,96993	1,27930
16,97992	1,28418
16,98992	1,27930
16,99991	1,28418
17,00991	1,28418
17,01990	1,27441
17,02989	1,28418
17,03989	1,27930
17,04988	1,28906
17,05988	1,27930
17,06987	1,27441
17,07986	1,28418
17,08986	1,28418
17,09985	1,28418
17,10985	1,28418
17,11984	1,27930
17,12983	1,28418
17,13983	1,28418
17,14982	1,28418
17,15982	1,28906
17,16981	1,28418
17,17981	1,28418
17,18980	1,28418
17,19979	1,28418
17,20979	1,27930
17,21978	1,27930
17,22978	1,28418
17,23977	1,28906
17,24976	1,27441
17,25976	1,28418
17,26975	1,28418
17,27975	1,28418
17,28974	1,28418
17,29973	1,28906
17,30973	1,27930
17,31972	1,28418
17,32972	1,27930
17,33971	1,28418
17,34970	1,27930
17,35970	1,27930
17,36969	1,28906
17,37969	1,28418
17,38968	1,28418
17,39967	1,27930
17,40967	1,28418
17,41966	1,28418
17,42966	1,27930
17,43965	1,28906
17,44965	1,28418
17,45964	1,27930
17,46963	1,28418
17,47963	1,27930
17,48962	1,28418
17,49962	1,28418
17,50961	1,27930
17,51960	1,28418
17,52960	1,27930
17,53959	1,28418
17,54959	1,28418
17,55958	1,28418
17,56957	1,28906
17,57957	1,27930
17,58956	1,28418
17,59956	1,28418
17,60955	1,28418
17,61954	1,27930
17,62954	1,27930
17,63953	1,28418
17,64953	1,28418
17,65952	1,27930
17,66951	1,28906
17,67951	1,27930
17,68950	1,28906
17,69950	1,27930
17,70949	1,28906
17,71948	1,27930
17,72948	1,28418
17,73947	1,28418
17,74947	1,28418
17,75946	1,28418
17,76946	1,28418
17,77945	1,28906
17,78944	1,28418
17,79944	1,28418
17,80943	1,28418
17,81943	1,28418
17,82942	1,28906
17,83941	1,28418
17,84941	1,27930
17,85940	1,27930
17,86940	1,28418
17,87939	1,28418
17,88938	1,29395
17,89938	1,28418
17,90937	1,27930
17,91937	1,28906
17,92936	1,28418
17,93935	1,27930
17,94935	1,28418
17,95934	1,27930
17,96934	1,27930
17,97933	1,28906
17,98932	1,28418
17,99932	1,29395
18,00931	1,28906
18,01931	1,27930
18,02930	1,28418
18,03930	1,27930
18,04929	1,28418
18,05928	1,28906
18,06928	1,28418
18,07927	1,28906
18,08927	1,28418
18,09926	1,28418
18,10925	1,28418
18,11925	1,28418
18,12924	1,28418
18,13924	1,28418
18,14923	1,28418
18,15922	1,28418
18,16922	1,28906
18,17921	1,28418
18,18921	1,28418
18,19920	1,28418
18,20919	1,28418
18,21919	1,27930
18,22918	1,27441
18,23918	1,27930
18,24917	1,27930
18,25916	1,27930
18,26916	1,28906
18,27915	1,27930
18,28915	1,28418
18,29914	1,27930
18,30913	1,28418
18,31913	1,29395
18,32912	1,28418
18,33912	1,28418
18,34911	1,28418
18,35911	1,28906
18,36910	1,27930
18,37909	1,28418
18,38909	1,27930
18,39908	1,28906
18,40908	1,27930
18,41907	1,28418
18,42906	1,28906
18,43906	1,28418
18,44905	1,27930
18,45905	1,28418
18,46904	1,28418
18,47903	1,27930
18,48903	1,27930
18,49902	1,27930
18,50902	1,27930
18,51901	1,28418
18,52900	1,28418
18,53900	1,28906
18,54899	1,28418
18,55899	1,28418
18,56898	1,28418
18,57897	1,28418
18,58897	1,28418
18,59896	1,28418
18,60896	1,28418
18,61895	1,28418
18,62895	1,28418
18,63894	1,28418
18,64893	1,28418
18,65893	1,27930
18,66892	1,28906
18,67892	1,27930
18,68891	1,28418
18,69890	1,28418
18,70890	1,27930
18,71889	1,28418
18,72889	1,28418
18,73888	1,28418
18,74887	1,28418
18,75887	1,27930
18,76886	1,28418
18,77886	1,27930
18,78885	1,28418
18,79884	1,27930
18,80884	1,28418
18,81883	1,27930
18,82883	1,28418
18,83882	1,28418
18,84881	1,28906
18,85881	1,28418
18,86880	1,28906
18,87880	1,28418
18,88879	1,27930
18,89879	1,28418
18,90878	1,28418
18,91877	1,28418
18,92877	1,28418
18,93876	1,28418
18,94876	1,28418
18,95875	1,28906
18,96874	1,28418
18,97874	1,28906
18,98873	1,28418
18,99873	1,28418
19,00872	1,28418
19,01871	1,28418
19,02871	1,28418
19,03870	1,28418
19,04870	1,28418
19,05869	1,28418
19,06868	1,27930
19,07868	1,28906
19,08867	1,27930
19,09867	1,29395
19,10866	1,27930
19,11865	1,28418
19,12865	1,28418
19,13864	1,28906
19,14864	1,28418
19,15863	1,28418
19,16862	1,27441
19,17862	1,28418
19,18861	1,27930
19,19861	1,27930
19,20860	1,28418
19,21860	1,28418
19,22859	1,28418
19,23858	1,28418
19,24858	1,28418
19,25857	1,28906
19,26857	1,28418
19,27856	1,27930
19,28855	1,27930
19,29855	1,27441
19,30854	1,28906
19,31854	1,28906
19,32853	1,28418
19,33852	1,28418
19,34852	1,28418
19,35851	1,27930
19,36851	1,28906
19,37850	1,27930
19,38849	1,28418
19,39849	1,27930
19,40848	1,28418
19,41848	1,27930
19,42847	1,28418
19,43846	1,28418
19,44846	1,28418
19,45845	1,28418
19,46845	1,28906
19,47844	1,28906
19,48844	1,28418
19,49843	1,28418
19,50842	1,28418
19,51842	1,28418
19,52841	1,27930
19,53841	1,28906
19,54840	1,27930
19,55839	1,27930
19,56839	1,28418
19,57838	1,27930
19,58838	1,28418
19,59837	1,28906
19,60836	1,28418
19,61836	1,28418
19,62835	1,27930
19,63835	1,28418
19,64834	1,28418
19,65833	1,27930
19,66833	1,28906
19,67832	1,27930
19,68832	1,28906
19,69831	1,28418
19,70830	1,27930
19,71830	1,28418
19,72829	1,27441
19,73829	1,28418
19,74828	1,28906
19,75828	1,27930
19,76827	1,28906
19,77826	1,28418
19,78826	1,28418
19,79825	1,28418
19,80825	1,27930
19,81824	1,28418
19,82823	1,28906
19,83823	1,27930
19,84822	1,28906
19,85822	1,27930
19,86821	1,28418
19,87820	1,28418
19,88820	1,28418
19,89819	1,28418
19,90819	1,28418
19,91818	1,27930
19,92817	1,28906
19,93817	1,27930
19,94816	1,29395
19,95816	1,28418
19,96815	1,28418
19,97814	1,28418
19,98814	1,27930
19,99813	1,27930
20,00813	1,28906
20,01812	1,27930
20,02811	1,28906
20,03811	1,28418
20,04810	1,27930
20,05810	1,28906
20,06809	1,28418
20,07809	1,28418
20,08808	1,28418
20,09807	1,28906
20,10807	1,28906
20,11806	1,27930
20,12806	1,28906
20,13805	1,28418
20,14804	1,27930
20,15804	1,28906
20,16803	1,27930
20,17803	1,28418
20,18802	1,28418
20,19801	1,28418
20,20801	1,28418
20,21800	1,27930
20,22800	1,27930
20,23799	1,28418
20,24798	1,28906
20,25798	1,28418
20,26797	1,28418
20,27797	1,28906
20,28796	1,28418
20,29795	1,28418
20,30795	1,28418
20,31794	1,28418
20,32794	1,27930
20,33793	1,28418
20,34793	1,28418
20,35792	1,28418
20,36791	1,28418
20,37791	1,27930
20,38790	1,28906
20,39790	1,28418
20,40789	1,28418
20,41788	1,28418
20,42788	1,27930
20,43787	1,28418
20,44787	1,28418
20,45786	1,28418
20,46785	1,28906
20,47785	1,27930
20,48784	1,28418
20,49784	1,27930
20,50783	1,28418
20,51782	1,28418
20,52782	1,27930
20,53781	1,28418
20,54781	1,28418
20,55780	1,28418
20,56779	1,28418
20,57779	1,28418
20,58778	1,28418
20,59778	1,28418
20,60777	1,28906
20,61777	1,28906
20,62776	1,28418
20,63775	1,28418
20,64775	1,28418
20,65774	1,28418
20,66774	1,27930
20,67773	1,28418
20,68772	1,27930
20,69772	1,28418
20,70771	1,27930
20,71771	1,28418
20,72770	1,28418
20,73769	1,28906
20,74769	1,28418
20,75768	1,28906
20,76768	1,28418
20,77767	1,29395
20,78766	1,27930
20,79766	1,28418
20,80765	1,27930
20,81765	1,28418
20,82764	1,29395
20,83763	1,27930
20,84763	1,28418
20,85762	1,28418
20,86762	1,28418
20,87761	1,28418
20,88760	1,28418
20,89760	1,28418
20,90759	1,28418
20,91759	1,28418
20,92758	1,28418
20,93758	1,28418
20,94757	1,28906
20,95756	1,28418
20,96756	1,28418
20,97755	1,28906
20,98755	1,28418
20,99754	1,28418
21,00753	1,28418
21,01753	1,28906
21,02752	1,28418
21,03752	1,28418
21,04751	1,28418
21,05750	1,28418
21,06750	1,28418
21,07749	1,28418
21,08749	1,28418
21,09748	1,28418
21,10747	1,28906
21,11747	1,28418
21,12746	1,28906
21,13746	1,28418
21,14745	1,28418
21,15744	1,28418
21,16744	1,28418
21,17743	1,28418
21,18743	1,28418
21,19742	1,28418
21,20742	1,28906
21,21741	1,28906
21,22740	1,27930
21,23740	1,28906
21,24739	1,27930
21,25739	1,29395
21,26738	1,28418
21,27737	1,28418
21,28737	1,28418
21,29736	1,27930
21,30736	1,28418
21,31735	1,28418
21,32734	1,28418
21,33734	1,28418
21,34733	1,28418
21,35733	1,27930
21,36732	1,28418
21,37731	1,28418
21,38731	1,28418
21,39730	1,28906
21,40730	1,28418
21,41729	1,29395
21,42728	1,28418
21,43728	1,28418
21,44727	1,28418
21,45727	1,28906
21,46726	1,28418
21,47725	1,27930
21,48725	1,28418
21,49724	1,27930
21,50724	1,28418
21,51723	1,28418
21,52723	1,28906
21,53722	1,28418
21,54721	1,28418
21,55721	1,27930
21,56720	1,28418
21,57720	1,28418
21,58719	1,28418
21,59718	1,28418
21,60718	1,28418
21,61717	1,28418
21,62717	1,28418
21,63716	1,28418
21,64715	1,28418
21,65715	1,27930
21,66714	1,27930
21,67714	1,28906
21,68713	1,28418
21,69712	1,28418
21,70712	1,27930
21,71711	1,28418
21,72711	1,28418
21,73710	1,27930
21,74709	1,28418
21,75709	1,28906
21,76708	1,27930
21,77708	1,28418
21,78707	1,27930
21,79707	1,28418
21,80706	1,27930
21,81705	1,28906
21,82705	1,29395
21,83704	1,28418
21,84704	1,28906
21,85703	1,28418
21,86702	1,27930
21,87702	1,28418
21,88701	1,27930
21,89701	1,28418
21,90700	1,28418
21,91699	1,28418
21,92699	1,27930
21,93698	1,28418
21,94698	1,28418
21,95697	1,28418
21,96696	1,28906
21,97696	1,28418
21,98695	1,28906
21,99695	1,27930
22,00694	1,27441
22,01693	1,28418
22,02693	1,28418
22,03692	1,28418
22,04692	1,28418
22,05691	1,28418
22,06691	1,27930
22,07690	1,28418
22,08689	1,28418
22,09689	1,27930
22,10688	1,28906
22,11688	1,28418
22,12687	1,28418
22,13686	1,28418
22,14686	1,28418
22,15685	1,28418
22,16685	1,28418
22,17684	1,28418
22,18683	1,27930
22,19683	1,28418
22,20682	1,28906
22,21682	1,27930
22,22681	1,28418
22,23680	1,28418
22,24680	1,28418
22,25679	1,28418
22,26679	1,28418
22,27678	1,28906
22,28677	1,28906
22,29677	1,28418
22,30676	1,28418
22,31676	1,28418
22,32675	1,28906
22,33674	1,28418
22,34674	1,27930
22,35673	1,28906
22,36673	1,28418
22,37672	1,28418
22,38672	1,28906
22,39671	1,28906
22,40670	1,28418
22,41670	1,28418
22,42669	1,27930
22,43669	1,28418
22,44668	1,28418
22,45667	1,28418
22,46667	1,28418
22,47666	1,28418
22,48666	1,28418
22,49665	1,28418
22,50664	1,29395
22,51664	1,29395
22,52663	1,28418
22,53663	1,28418
22,54662	1,28418
22,55661	1,28418
22,56661	1,27930
22,57660	1,28906
22,58660	1,28418
22,59659	1,28418
22,60658	1,27441
22,61658	1,28906
22,62657	1,28418
22,63657	1,27930
22,64656	1,28906
22,65656	1,27441
22,66655	1,28906
22,67654	1,28418
22,68654	1,28418
22,69653	1,28906
22,70653	1,27930
22,71652	1,27930
22,72651	1,28906
22,73651	1,28418
22,74650	1,28906
22,75650	1,28418
22,76649	1,27930
22,77648	1,28418
22,78648	1,28418
22,79647	1,28418
22,80647	1,27930
22,81646	1,28418
22,82645	1,28906
22,83645	1,27930
22,84644	1,28418
22,85644	1,28906
22,86643	1,28418
22,87642	1,28418
22,88642	1,27930
22,89641	1,27930
22,90641	1,28418
22,91640	1,27930
22,92640	1,28418
22,93639	1,28418
22,94638	1,28418
22,95638	1,28906
22,96637	1,27930
22,97637	1,28906
22,98636	1,28418
22,99635	1,28418
23,00635	1,28418
23,01634	1,27441
23,02634	1,27930
23,03633	1,28418
23,04632	1,28418
23,05632	1,28906
23,06631	1,29395
23,07631	1,28906
23,08630	1,28418
23,09629	1,28418
23,10629	1,28418
23,11628	1,28418
23,12628	1,28418
23,13627	1,28906
23,14626	1,28418
23,15626	1,28906
23,16625	1,27930
23,17625	1,28906
23,18624	1,28906
23,19623	1,27930
23,20623	1,28418
23,21622	1,28418
23,22622	1,28418
23,23621	1,28906
23,24621	1,27930
23,25620	1,28418
23,26619	1,29395
23,27619	1,28418
23,28618	1,28906
23,29618	1,27930
23,30617	1,29395
23,31616	1,28418
23,32616	1,28418
23,33615	1,28418
23,34615	1,28418
23,35614	1,28418
23,36613	1,28906
23,37613	1,27930
23,38612	1,28418
23,39612	1,27930
23,40611	1,28418
23,41610	1,28418
23,42610	1,28418
23,43609	1,28418
23,44609	1,28906
23,45608	1,27930
23,46607	1,27930
23,47607	1,28418
23,48606	1,27930
23,49606	1,28418
23,50605	1,27930
23,51605	1,28418
23,52604	1,28418
23,53603	1,28906
23,54603	1,28418
23,55602	1,28906
23,56602	1,27930
23,57601	1,28418
23,58600	1,28418
23,59600	1,28418
23,60599	1,28418
23,61599	1,28418
23,62598	1,28418
23,63597	1,28418
23,64597	1,28418
23,65596	1,28906
23,66596	1,28418
23,67595	1,28418
23,68594	1,28418
23,69594	1,28418
23,70593	1,28906
23,71593	1,28418
23,72592	1,28418
23,73591	1,28418
23,74591	1,28906
23,75590	1,27930
23,76590	1,27930
23,77589	1,28418
23,78588	1,27930
23,79588	1,28418
23,80587	1,28418
23,81587	1,27930
23,82586	1,28418
23,83586	1,28418
23,84585	1,28906
23,85584	1,28418
23,86584	1,28418
23,87583	1,28906
23,88583	1,28418
23,89582	1,28418
23,90581	1,28418
23,91581	1,28418
23,92580	1,27930
23,93580	1,28418
23,94579	1,28418
23,95578	1,28906
23,96578	1,28418
23,97577	1,28906
23,98577	1,28906
23,99576	1,28418
24,00575	1,27930
24,01575	1,27930
24,02574	1,28418
24,03574	1,28418
24,04573	1,28418
24,05572	1,28418
24,06572	1,27441
24,07571	1,27930
24,08571	1,28906
24,09570	1,28418
24,10570	1,28418
24,11569	1,28418
24,12568	1,28418
24,13568	1,27930
24,14567	1,28418
24,15567	1,28418
24,16566	1,28418
24,17565	1,29395
24,18565	1,28418
24,19564	1,28906
24,20564	1,28418
24,21563	1,28906
24,22562	1,27930
24,23562	1,28906
24,24561	1,28418
24,25561	1,28418
24,26560	1,28906
24,27559	1,27441
24,28559	1,28906
24,29558	1,28418
24,30558	1,28418
24,31557	1,28418
24,32556	1,27930
24,33556	1,28418
24,34555	1,28418
24,35555	1,28418
24,36554	1,28906
24,37554	1,27441
24,38553	1,28906
24,39552	1,27930
24,40552	1,28418
24,41551	1,28418
24,42551	1,27930
24,43550	1,28418
24,44549	1,28418
24,45549	1,27441
24,46548	1,28418
24,47548	1,28418
24,48547	1,28418
24,49546	1,28418
24,50546	1,28418
24,51545	1,28906
24,52545	1,28418
24,53544	1,28418
24,54543	1,28906
24,55543	1,27930
24,56542	1,27930
24,57542	1,28906
24,58541	1,28418
24,59540	1,28906
24,60540	1,28418
24,61539	1,28418
24,62539	1,28418
24,63538	1,28418
24,64537	1,28418
24,65537	1,27441
24,66536	1,28418
24,67536	1,28906
24,68535	1,28418
24,69535	1,28418
24,70534	1,27930
24,71533	1,28906
24,72533	1,28906
24,73532	1,28418
24,74532	1,28418
24,75531	1,27930
24,76530	1,28906
24,77530	1,27930
24,78529	1,27930
24,79529	1,28906
24,80528	1,28418
24,81527	1,28418
24,82527	1,28418
24,83526	1,28418
24,84526	1,28906
24,85525	1,27930
24,86524	1,28418
24,87524	1,27930
24,88523	1,28418
24,89523	1,27930
24,90522	1,28418
24,91521	1,28418
24,92521	1,28418
24,93520	1,28418
24,94520	1,29395
24,95519	1,28418
24,96519	1,28418
24,97518	1,28418
24,98517	1,28418
24,99517	1,28418
25,00516	1,28906
25,01516	1,28418
25,02515	1,28418
25,03514	1,29395
25,04514	1,27930
25,05513	1,28906
25,06513	1,28418
25,07512	1,27930
25,08511	1,28906
25,09511	1,28906
25,10510	1,28418
25,11510	1,28418
25,12509	1,27930
25,13508	1,28418
25,14508	1,28418
25,15507	1,28418
25,16507	1,28418
25,17506	1,27930
25,18505	1,28418
25,19505	1,28418
25,20504	1,28418
25,21504	1,28906
25,22503	1,27930
25,23503	1,28906
25,24502	1,27930
25,25501	1,27930
25,26501	1,28906
25,27500	1,28906
25,28500	1,28418
25,29499	1,28418
25,30498	1,27930
25,31498	1,28418
25,32497	1,28418
25,33497	1,28418
25,34496	1,28418
25,35495	1,28418
25,36495	1,28418
25,37494	1,28418
25,38494	1,28906
25,39493	1,28418
25,40492	1,27930
25,41492	1,28906
25,42491	1,28418
25,43491	1,28906
25,44490	1,28906
25,45489	1,27441
25,46489	1,28418
25,47488	1,28906
25,48488	1,28418
25,49487	1,28906
25,50486	1,27930
25,51486	1,28418
25,52485	1,28418
25,53485	1,28418
25,54484	1,28418
25,55484	1,28418
25,56483	1,28906
25,57482	1,27930
25,58482	1,28418
25,59481	1,28418
25,60481	1,28418
25,61480	1,28906
25,62479	1,28906
25,63479	1,28418
25,64478	1,28906
25,65478	1,28906
25,66477	1,28418
25,67476	1,28906
25,68476	1,28418
25,69475	1,28418
25,70475	1,28418
25,71474	1,28418
25,72473	1,28418
25,73473	1,28906
25,74472	1,28418
25,75472	1,28418
25,76471	1,27930
25,77470	1,28906
25,78470	1,28418
25,79469	1,29395
25,80469	1,28418
25,81468	1,29395
25,82468	1,28906
25,83467	1,28906
25,84466	1,28418
25,85466	1,28906
25,86465	1,27930
25,87465	1,28906
25,88464	1,28418
25,89463	1,28418
25,90463	1,28906
25,91462	1,28418
25,92462	1,28418
25,93461	1,27930
25,94460	1,28418
25,95460	1,28418
25,96459	1,28418
25,97459	1,28418
25,98458	1,28418
25,99457	1,27930
26,00457	1,28418
26,01456	1,27930
26,02456	1,28418
26,03455	1,28418
26,04454	1,27930
26,05454	1,28906
26,06453	1,27930
26,07453	1,28418
26,08452	1,28418
26,09452	1,27930
26,10451	1,28418
26,11450	1,28906
26,12450	1,28418
26,13449	1,28906
26,14449	1,28418
26,15448	1,28906
26,16447	1,28418
26,17447	1,27930
26,18446	1,28418
26,19446	1,28418
26,20445	1,28906
26,21444	1,29395
26,22444	1,28418
26,23443	1,28418
26,24443	1,27930
26,25442	1,28418
26,26441	1,28418
26,27441	1,28418
26,28440	1,27930
26,29440	1,28906
26,30439	1,28418
26,31438	1,28418
26,32438	1,28418
26,33437	1,28418
26,34437	1,28418
26,35436	1,28418
26,36435	1,28418
26,37435	1,28418
26,38434	1,28418
26,39434	1,29395
26,40433	1,27930
26,41433	1,28906
26,42432	1,28418
26,43431	1,28906
26,44431	1,28906
26,45430	1,28418
26,46430	1,28418
26,47429	1,28418
26,48428	1,28418
26,49428	1,28418
26,50427	1,28418
26,51427	1,28906
26,52426	1,28418
26,53425	1,28418
26,54425	1,28418
26,55424	1,28906
26,56424	1,29395
26,57423	1,28906
26,58422	1,28418
26,59422	1,28418
26,60421	1,28418
26,61421	1,27930
26,62420	1,28418
26,63419	1,27930
26,64419	1,28418
26,65418	1,28906
26,66418	1,28418
26,67417	1,28418
26,68417	1,28418
26,69416	1,27930
26,70415	1,27930
26,71415	1,27930
26,72414	1,28418
26,73414	1,28418
26,74413	1,28418
26,75412	1,28418
26,76412	1,27441
26,77411	1,28906
26,78411	1,27930
26,79410	1,28418
26,80409	1,28418
26,81409	1,27930
26,82408	1,28418
26,83408	1,28418
26,84407	1,28418
26,85406	1,28418
26,86406	1,28418
26,87405	1,28906
26,88405	1,28906
26,89404	1,28418
26,90403	1,28418
26,91403	1,28418
26,92402	1,28418
26,93402	1,28418
26,94401	1,28906
26,95400	1,28418
26,96400	1,27930
26,97399	1,28418
26,98399	1,28418
26,99398	1,27930
27,00398	1,29395
27,01397	1,28906
27,02396	1,28906
27,03396	1,28418
27,04395	1,29395
27,05395	1,28418
27,06394	1,27930
27,07393	1,27930
27,08393	1,28906
27,09392	1,27930
27,10392	1,28906
27,11391	1,28418
27,12390	1,28418
27,13390	1,28418
27,14389	1,27930
27,15389	1,28418
27,16388	1,27930
27,17387	1,27930
27,18387	1,28418
27,19386	1,27930
27,20386	1,28418
27,21385	1,28418
27,22384	1,28418
27,23384	1,27930
27,24383	1,28418
27,25383	1,29395
27,26382	1,28906
27,27382	1,27441
27,28381	1,28906
27,29380	1,28418
27,30380	1,27930
27,31379	1,28418
27,32379	1,28418
27,33378	1,28418
27,34377	1,27930
27,35377	1,28418
27,36376	1,28418
27,37376	1,28418
27,38375	1,28418
27,39374	1,28418
27,40374	1,27930
27,41373	1,28906
27,42373	1,27930
27,43372	1,28418
27,44371	1,28418
27,45371	1,27930
27,46370	1,28418
27,47370	1,28906
27,48369	1,27930
27,49368	1,28418
27,50368	1,28418
27,51367	1,28418
27,52367	1,28418
27,53366	1,28418
27,54366	1,28418
27,55365	1,28418
27,56364	1,28418
27,57364	1,28906
27,58363	1,28418
27,59363	1,29395
27,60362	1,27930
27,61361	1,28906
27,62361	1,28906
27,63360	1,28418
27,64360	1,28418
27,65359	1,28418
27,66358	1,28906
27,67358	1,28906
27,68357	1,28418
27,69357	1,28906
27,70356	1,28418
27,71355	1,27930
27,72355	1,29395
27,73354	1,28906
27,74354	1,28418
27,75353	1,28906
27,76352	1,28418
27,77352	1,28906
27,78351	1,27930
27,79351	1,27441
27,80350	1,28418
27,81349	1,28418
27,82349	1,28906
27,83348	1,28418
27,84348	1,28418
27,85347	1,28906
27,86347	1,28906
27,87346	1,28418
27,88345	1,29395
27,89345	1,28418
27,90344	1,29395
27,91344	1,28418
27,92343	1,28418
27,93342	1,27930
27,94342	1,28906
27,95341	1,28418
27,96341	1,28418
27,97340	1,28418
27,98339	1,28418
27,99339	1,28418
28,00338	1,28418
28,01338	1,28418
28,02337	1,29395
28,03336	1,29883
28,04336	1,28906
28,05335	1,28418
28,06335	1,27930
28,07334	1,27930
28,08333	1,28418
28,09333	1,27930
28,10332	1,28418
28,11332	1,28418
28,12331	1,29395
28,13331	1,28906
28,14330	1,29395
28,15329	1,29395
28,16329	1,28418
28,17328	1,27930
28,18328	1,28906
28,19327	1,28418
28,20326	1,28418
28,21326	1,28418
28,22325	1,27930
28,23325	1,28906
28,24324	1,28418
28,25323	1,28906
28,26323	1,28418
28,27322	1,28418
28,28322	1,28418
28,29321	1,28418
28,30320	1,28906
28,31320	1,28418
28,32319	1,28418
28,33319	1,28418
28,34318	1,28418
28,35317	1,28418
28,36317	1,28418
28,37316	1,28418
28,38316	1,28418
28,39315	1,28418
28,40315	1,28418
28,41314	1,28418
28,42313	1,28418
28,43313	1,28418
28,44312	1,28906
28,45312	1,27930
28,46311	1,28418
28,47310	1,28906
28,48310	1,28906
28,49309	1,28906
28,50309	1,28418
28,51308	1,28906
28,52307	1,28418
28,53307	1,28418
28,54306	1,28418
28,55306	1,27930
28,56305	1,28418
28,57304	1,28418
28,58304	1,27930
28,59303	1,28906
28,60303	1,28418
28,61302	1,29395
28,62301	1,28418
28,63301	1,28418
28,64300	1,28418
28,65300	1,28906
28,66299	1,28906
28,67298	1,28906
28,68298	1,28418
28,69297	1,28418
28,70297	1,28418
28,71296	1,28418
28,72296	1,28418
28,73295	1,28906
28,74294	1,28906
28,75294	1,28906
28,76293	1,28418
28,77293	1,28418
28,78292	1,28418
28,79291	1,27930
28,80291	1,28418
28,81290	1,28906
28,82290	1,28906
28,83289	1,28418
28,84288	1,28418
28,85288	1,28418
28,86287	1,27930
28,87287	1,28906
28,88286	1,28418
28,89285	1,28906
28,90285	1,28418
28,91284	1,28418
28,92284	1,28906
28,93283	1,28418
28,94282	1,28418
28,95282	1,28418
28,96281	1,28418
28,97281	1,28906
28,98280	1,28418
28,99280	1,28418
29,00279	1,28418
29,01278	1,29395
29,02278	1,28418
29,03277	1,28418
29,04277	1,27930
29,05276	1,28906
29,06275	1,28418
29,07275	1,28418
29,08274	1,29395
29,09274	1,28418
29,10273	1,28418
29,11272	1,28418
29,12272	1,27930
29,13271	1,28418
29,14271	1,27930
29,15270	1,28906
29,16269	1,28418
29,17269	1,28418
29,18268	1,28906
29,19268	1,27930
29,20267	1,28906
29,21266	1,28906
29,22266	1,28418
29,23265	1,28418
29,24265	1,28906
29,25264	1,28906
29,26263	1,28418
29,27263	1,28418
29,28262	1,29883
29,29262	1,28418
29,30261	1,27930
29,31261	1,28418
29,32260	1,28906
29,33259	1,28418
29,34259	1,27930
29,35258	1,27930
29,36258	1,28418
29,37257	1,28418
29,38256	1,28906
29,39256	1,28418
29,40255	1,28418
29,41255	1,28418
29,42254	1,28418
29,43253	1,27930
29,44253	1,28906
29,45252	1,28418
29,46252	1,28418
29,47251	1,28418
29,48250	1,28418
29,49250	1,28418
29,50249	1,29395
29,51249	1,28418
29,52248	1,27930
29,53247	1,28418
29,54247	1,29883
29,55246	1,27930
29,56246	1,28418
29,57245	1,29395
29,58245	1,28418
29,59244	1,28418
29,60243	1,27930
29,61243	1,28418
29,62242	1,29395
29,63242	1,28418
29,64241	1,27930
29,65240	1,28418
29,66240	1,27441
29,67239	1,28906
29,68239	1,28906
29,69238	1,28906
29,70237	1,28418
29,71237	1,28418
29,72236	1,28906
29,73236	1,28906
29,74235	1,28418
29,75234	1,28906
29,76234	1,28418
29,77233	1,28906
29,78233	1,27930
29,79232	1,28418
29,80231	1,28418
29,81231	1,27930
29,82230	1,29883
29,83230	1,28418
29,84229	1,28906
29,85229	1,28418
29,86228	1,28906
29,87227	1,28418
29,88227	1,28418
29,89226	1,29395
29,90226	1,28418
29,91225	1,28418
29,92224	1,28418
29,93224	1,28418
29,94223	1,28418
29,95223	1,28418
29,96222	1,28418
29,97221	1,28418
29,98221	1,28418
29,99220	1,28418
30,00220	1,28418
30,01219	1,28418
30,02218	1,29395
30,03218	1,28906
30,04217	1,28418
30,05217	1,28418
30,06216	1,28418
30,07215	1,28418
30,08215	1,29395
30,09214	1,29395
30,10214	1,28906
30,11213	1,28906
30,12212	1,28418
30,13212	1,29883
30,14211	1,27930
30,15211	1,28418
30,16210	1,28418
30,17210	1,28418
30,18209	1,28906
30,19208	1,27930
30,20208	1,28418
30,21207	1,28906
30,22207	1,28906
30,23206	1,28906
30,24205	1,28418
30,25205	1,28418
30,26204	1,27930
30,27204	1,27930
30,28203	1,28418
30,29202	1,28418
30,30202	1,28418
30,31201	1,28906
30,32201	1,28418
30,33200	1,28418
30,34199	1,28418
30,35199	1,28418
30,36198	1,28418
30,37198	1,28418
30,38197	1,28418
30,39196	1,28418
30,40196	1,28418
30,41195	1,28418
30,42195	1,28418
30,43194	1,28418
30,44194	1,27930
30,45193	1,28418
30,46192	1,28418
30,47192	1,28418
30,48191	1,28418
30,49191	1,28418
30,50190	1,27930
30,51189	1,28418
30,52189	1,28906
30,53188	1,29395
30,54188	1,28418
30,55187	1,28418
30,56186	1,28906
30,57186	1,28906
30,58185	1,27930
30,59185	1,28906
30,60184	1,28418
30,61183	1,27930
30,62183	1,28906
30,63182	1,27930
30,64182	1,28906
30,65181	1,28906
30,66180	1,28418
30,67180	1,28418
30,68179	1,28906
30,69179	1,28418
30,70178	1,27930
30,71178	1,28418
30,72177	1,28906
30,73176	1,28418
30,74176	1,27930
30,75175	1,29395
30,76175	1,28418
30,77174	1,28418
30,78173	1,29395
30,79173	1,28418
30,80172	1,28418
30,81172	1,28418
30,82171	1,28906
30,83170	1,27930
30,84170	1,28418
30,85169	1,28418
30,86169	1,27930
30,87168	1,28906
30,88167	1,27930
30,89167	1,28418
30,90166	1,28418
30,91166	1,27930
30,92165	1,28906
30,93164	1,28418
30,94164	1,28418
30,95163	1,28906
30,96163	1,28418
30,97162	1,27930
30,98161	1,28418
30,99161	1,28906
31,00160	1,28418
31,01160	1,28418
31,02159	1,28418
31,03159	1,28418
31,04158	1,27930
31,05157	1,27441
31,06157	1,27930
31,07156	1,28906
31,08156	1,28906
31,09155	1,28418
31,10154	1,28418
31,11154	1,28418
31,12153	1,28906
31,13153	1,28418
31,14152	1,28418
31,15151	1,28418
31,16151	1,28418
31,17150	1,28418
31,18150	1,28906
31,19149	1,29395
31,20148	1,28906
31,21148	1,28418
31,22147	1,28418
31,23147	1,28906
31,24146	1,28906
31,25145	1,28418
31,26145	1,28418
31,27144	1,28418
31,28144	1,27930
31,29143	1,28906
31,30143	1,28418
31,31142	1,28906
31,32141	1,27930
31,33141	1,28906
31,34140	1,28418
31,35140	1,27930
31,36139	1,28906
31,37138	1,27441
31,38138	1,28418
31,39137	1,28906
31,40137	1,27930
31,41136	1,28906
31,42135	1,27930
31,43135	1,28418
31,44134	1,28418
31,45134	1,28418
31,46133	1,28418
31,47132	1,28418
31,48132	1,28418
31,49131	1,28906
31,50131	1,27930
31,51130	1,28906
31,52129	1,28418
31,53129	1,27930
31,54128	1,28906
31,55128	1,27930
31,56127	1,28418
31,57126	1,28418
31,58126	1,28906
31,59125	1,27930
31,60125	1,28906
31,61124	1,27930
31,62124	1,28418
31,63123	1,27930
31,64122	1,28418
31,65122	1,28906
31,66121	1,28418
31,67121	1,28418
31,68120	1,28418
31,69119	1,27930
31,70119	1,28418
31,71118	1,28418
31,72118	1,28418
31,73117	1,28418
31,74116	1,29395
31,75116	1,28418
31,76115	1,27930
31,77115	1,27930
31,78114	1,29883
31,79113	1,28418
31,80113	1,28418
31,81112	1,28418
31,82112	1,28418
31,83111	1,28418
31,84110	1,28418
31,85110	1,28906
31,86109	1,28418
31,87109	1,29395
31,88108	1,29395
31,89108	1,28418
31,90107	1,29395
31,91106	1,28418
31,92106	1,28906
31,93105	1,28418
31,94105	1,28418
31,95104	1,28906
31,96103	1,28418
31,97103	1,28418
31,98102	1,28418
31,99102	1,27930
32,00101	1,28906
32,01100	1,28418
32,02100	1,28418
32,03099	1,28906
32,04099	1,28418
32,05098	1,28906
32,06097	1,28418
32,07097	1,28418
32,08096	1,28418
32,09096	1,28418
32,10095	1,28418
32,11094	1,28418
32,12094	1,28906
32,13093	1,28418
32,14093	1,27930
32,15092	1,28418
32,16092	1,28906
32,17091	1,28418
32,18090	1,28418
32,19090	1,28418
32,20089	1,28418
32,21089	1,28906
32,22088	1,28418
32,23087	1,28418
32,24087	1,28906
32,25086	1,28906
32,26086	1,28906
32,27085	1,27930
32,28084	1,28418
32,29084	1,28906
32,30083	1,28418
32,31083	1,28418
32,32082	1,28418
32,33081	1,28906
32,34081	1,28906
32,35080	1,27930
32,36080	1,28906
32,37079	1,28418
32,38078	1,28418
32,39078	1,28418
32,40077	1,27441
32,41077	1,28906
32,42076	1,28418
32,43075	1,28418
32,44075	1,28418
32,45074	1,28418
32,46074	1,28418
32,47073	1,28418
32,48073	1,28418
32,49072	1,28906
32,50071	1,28418
32,51071	1,28418
32,52070	1,28418
32,53070	1,27930
32,54069	1,27930
32,55068	1,28906
32,56068	1,28906
32,57067	1,28418
32,58067	1,28418
32,59066	1,27930
32,60065	1,28418
32,61065	1,27930
32,62064	1,29395
32,63064	1,28418
32,64063	1,28906
32,65062	1,27930
32,66062	1,28906
32,67061	1,28418
32,68061	1,28418
32,69060	1,28418
32,70059	1,28418
32,71059	1,27930
32,72058	1,28418
32,73058	1,27930
32,74057	1,28418
32,75057	1,28418
32,76056	1,28418
32,77055	1,28906
32,78055	1,28418
32,79054	1,28418
32,80054	1,28418
32,81053	1,27930
32,82052	1,28418
32,83052	1,27930
32,84051	1,28418
32,85051	1,28418
32,86050	1,28418
32,87049	1,28418
32,88049	1,28418
32,89048	1,28418
32,90048	1,28906
32,91047	1,28418
32,92046	1,28418
32,93046	1,28418
32,94045	1,27930
32,95045	1,28418
32,96044	1,28418
32,97043	1,28906
32,98043	1,28418
32,99042	1,28418
33,00042	1,28418
33,01041	1,28906
33,02041	1,28906
33,03040	1,28418
33,04039	1,27441
33,05039	1,28418
33,06038	1,28418
33,07038	1,28418
33,08037	1,28906
33,09036	1,28418
33,10036	1,28418
33,11035	1,27930
33,12035	1,28418
33,13034	1,28418
33,14033	1,28418
33,15033	1,28906
33,16032	1,28418
33,17032	1,28418
33,18031	1,28906
33,19030	1,28418
33,20030	1,28418
33,21029	1,28418
33,22029	1,28418
33,23028	1,27930
33,24027	1,28418
33,25027	1,27930
33,26026	1,28418
33,27026	1,28418
33,28025	1,28418
33,29024	1,27930
33,30024	1,28418
33,31023	1,27930
33,32023	1,28418
33,33022	1,27930
33,34022	1,27930
33,35021	1,27930
33,36020	1,28418
33,37020	1,28418
33,38019	1,28906
33,39019	1,28418
33,40018	1,27930
33,41017	1,28418
33,42017	1,28418
33,43016	1,28418
33,44016	1,28906
33,45015	1,27930
33,46014	1,28418
33,47014	1,28418
33,48013	1,28906
33,49013	1,28906
33,50012	1,28418
33,51011	1,28418
33,52011	1,28906
33,53010	1,28418
33,54010	1,28906
33,55009	1,28418
33,56008	1,27930
33,57008	1,28418
33,58007	1,28418
33,59007	1,29395
33,60006	1,27930
33,61006	1,27930
33,62005	1,28418
33,63004	1,28418
33,64004	1,28418
33,65003	1,28906
33,66003	1,28418
33,67002	1,28906
33,68001	1,28418
33,69001	1,28906
33,70000	1,28906
33,71000	1,27930
33,71999	1,28418
33,72998	1,28418
33,73998	1,28418
33,74997	1,28906
33,75997	1,28906
33,76996	1,28906
33,77995	1,28418
33,78995	1,27930
33,79994	1,28418
33,80994	1,27930
33,81993	1,27930
33,82992	1,27930
33,83992	1,28418
33,84991	1,28418
33,85991	1,28418
33,86990	1,28418
33,87990	1,28906
33,88989	1,28418
33,89988	1,28418
33,90988	1,28418
33,91987	1,28906
33,92987	1,28418
33,93986	1,28418
33,94985	1,28418
33,95985	1,28906
33,96984	1,28418
33,97984	1,28418
33,98983	1,28418
33,99982	1,28418
34,00982	1,28418
34,01981	1,28906
34,02981	1,28418
34,03980	1,28418
34,04979	1,28418
34,05979	1,28418
34,06978	1,29395
34,07978	1,28418
34,08977	1,28418
34,09976	1,28418
34,10976	1,28418
34,11975	1,28418
34,12975	1,28906
34,13974	1,28418
34,14973	1,28418
34,15973	1,28906
34,16972	1,28418
34,17972	1,28418
34,18971	1,29395
34,19971	1,28418
34,20970	1,28418
34,21969	1,28418
34,22969	1,27930
34,23968	1,28418
34,24968	1,28418
34,25967	1,28418
34,26966	1,29395
34,27966	1,28418
34,28965	1,28418
34,29965	1,28418
34,30964	1,28418
34,31963	1,28418
34,32963	1,28418
34,33962	1,28906
34,34962	1,27930
34,35961	1,28906
34,36960	1,27930
34,37960	1,28418
34,38959	1,28418
34,39959	1,28418
34,40958	1,28418
34,41957	1,28418
34,42957	1,27930
34,43956	1,27930
34,44956	1,28906
34,45955	1,28418
34,46955	1,28418
34,47954	1,28418
34,48953	1,28418
34,49953	1,28418
34,50952	1,28418
34,51952	1,28906
34,52951	1,28418
34,53950	1,28418
34,54950	1,27930
34,55949	1,28418
34,56949	1,28418
34,57948	1,28418
34,58947	1,28906
34,59947	1,27930
34,60946	1,28418
34,61946	1,28418
34,62945	1,28418
34,63944	1,27930
34,64944	1,28906
34,65943	1,27930
34,66943	1,28906
34,67942	1,28418
34,68941	1,28418
34,69941	1,28418
34,70940	1,28418
34,71940	1,27930
34,72939	1,28418
34,73938	1,28418
34,74938	1,28906
34,75937	1,27930
34,76937	1,28418
34,77936	1,28418
34,78936	1,28418
34,79935	1,28418
34,80934	1,27930
34,81934	1,28906
34,82933	1,28418
34,83933	1,28418
34,84932	1,28418
34,85931	1,28418
34,86931	1,29883
34,87930	1,28906
34,88930	1,28906
34,89929	1,28418
34,90928	1,28418
34,91928	1,28418
34,92927	1,28418
34,93927	1,28418
34,94926	1,28418
34,95925	1,28906
34,96925	1,27930
34,97924	1,28906
34,98924	1,27930
34,99923	1,27930
35,00922	1,28906
35,01922	1,27930
35,02921	1,28418
35,03921	1,28418
35,04920	1,28418
35,05920	1,28906
35,06919	1,27930
35,07918	1,28418
35,08918	1,28906
35,09917	1,28418
35,10917	1,28418
35,11916	1,27930
35,12915	1,28418
35,13915	1,28906
35,14914	1,29395
35,15914	1,28418
35,16913	1,28418
35,17912	1,28418
35,18912	1,28418
35,19911	1,29395
35,20911	1,28418
35,21910	1,27930
35,22909	1,28906
35,23909	1,28418
35,24908	1,27441
35,25908	1,28418
35,26907	1,28418
35,27906	1,28906
35,28906	1,28418
35,29905	1,28418
35,30905	1,28418
35,31904	1,28418
35,32904	1,29395
35,33903	1,28418
35,34902	1,28906
35,35902	1,28418
35,36901	1,28906
35,37901	1,28418
35,38900	1,28418
35,39899	1,28418
35,40899	1,27930
35,41898	1,28418
35,42898	1,28418
35,43897	1,28418
35,44896	1,28418
35,45896	1,28418
35,46895	1,28418
35,47895	1,28418
35,48894	1,28418
35,49893	1,28418
35,50893	1,28418
35,51892	1,28418
35,52892	1,28418
35,53891	1,28906
35,54890	1,28906
35,55890	1,27930
35,56889	1,28418
35,57889	1,28418
35,58888	1,27930
35,59887	1,28906
35,60887	1,27930
35,61886	1,28418
35,62886	1,27930
35,63885	1,28418
35,64885	1,28906
35,65884	1,28418
35,66883	1,28418
35,67883	1,28418
35,68882	1,28906
35,69882	1,28418
35,70881	1,28418
35,71880	1,28418
35,72880	1,28906
35,73879	1,28418
35,74879	1,28418
35,75878	1,28418
35,76877	1,28418
35,77877	1,28418
35,78876	1,28418
35,79876	1,28906
35,80875	1,28418
35,81874	1,28418
35,82874	1,28418
35,83873	1,28418
35,84873	1,28418
35,85872	1,28418
35,86871	1,28418
35,87871	1,28418
35,88870	1,28418
35,89870	1,28418
35,90869	1,28418
35,91869	1,28418
35,92868	1,28418
35,93867	1,28418
35,94867	1,28906
35,95866	1,28418
35,96866	1,28906
35,97865	1,28418
35,98864	1,28418
35,99864	1,28906
36,00863	1,28418
36,01863	1,27930
36,02862	1,27930
36,03861	1,28418
36,04861	1,27930
36,05860	1,28906
36,06860	1,28418
36,07859	1,28418
36,08858	1,28906
36,09858	1,27930
36,10857	1,28906
36,11857	1,28906
36,12856	1,28418
36,13855	1,28418
36,14855	1,28418
36,15854	1,28418
36,16854	1,27930
36,17853	1,28418
36,18853	1,28418
36,19852	1,28906
36,20851	1,28906
36,21851	1,28418
36,22850	1,28418
36,23850	1,28906
36,24849	1,28418
36,25848	1,28418
36,26848	1,28418
36,27847	1,28906
36,28847	1,28418
36,29846	1,27930
36,30845	1,28906
36,31845	1,27930
36,32844	1,28906
36,33844	1,28418
36,34843	1,29395
36,35842	1,28418
36,36842	1,28418
36,37841	1,28418
36,38841	1,28906
36,39840	1,28906
36,40839	1,28418
36,41839	1,28418
36,42838	1,28418
36,43838	1,28418
36,44837	1,28418
36,45836	1,27930
36,46836	1,28906
36,47835	1,28418
36,48835	1,28418
36,49834	1,29395
36,50834	1,28418
36,51833	1,29883
36,52832	1,28906
36,53832	1,28418
36,54831	1,28906
36,55831	1,27930
36,56830	1,27930
36,57829	1,28418
36,58829	1,28418
36,59828	1,29395
36,60828	1,28418
36,61827	1,28906
36,62826	1,29395
36,63826	1,28906
36,64825	1,28418
36,65825	1,28906
36,66824	1,28418
36,67823	1,28906
36,68823	1,28418
36,69822	1,28418
36,70822	1,28418
36,71821	1,28418
36,72820	1,27930
36,73820	1,28418
36,74819	1,27930
36,75819	1,28906
36,76818	1,27930
36,77818	1,28906
36,78817	1,28418
36,79816	1,28418
36,80816	1,28418
36,81815	1,28418
36,82815	1,28418
36,83814	1,28418
36,84813	1,28906
36,85813	1,28418
36,86812	1,28418
36,87812	1,28906
36,88811	1,28418
36,89810	1,28418
36,90810	1,28418
36,91809	1,27930
36,92809	1,28418
36,93808	1,27930
36,94807	1,27930
36,95807	1,29883
36,96806	1,27930
36,97806	1,28418
36,98805	1,28418
36,99804	1,28418
37,00804	1,28906
37,01803	1,27930
37,02803	1,29395
37,03802	1,28418
37,04801	1,28906
37,05801	1,28418
37,06800	1,28418
37,07800	1,28906
37,08799	1,28418
37,09799	1,28418
37,10798	1,28418
37,11797	1,28906
37,12797	1,28418
37,13796	1,28418
37,14796	1,28418
37,15795	1,28418
37,16794	1,28418
37,17794	1,28418
37,18793	1,28418
37,19793	1,29883
37,20792	1,28906
37,21791	1,28418
37,22791	1,28418
37,23790	1,28906
37,24790	1,28418
37,25789	1,28418
37,26788	1,28906
37,27788	1,28418
37,28787	1,28906
37,29787	1,28418
37,30786	1,28418
37,31785	1,28418
37,32785	1,28418
37,33784	1,28906
37,34784	1,28418
37,35783	1,28418
37,36783	1,28418
37,37782	1,28418
37,38781	1,28418
37,39781	1,28418
37,40780	1,28906
37,41780	1,28418
37,42779	1,28418
37,43778	1,28418
37,44778	1,28418
37,45777	1,27930
37,46777	1,28906
37,47776	1,28418
37,48775	1,28418
37,49775	1,28418
37,50774	1,28418
37,51774	1,28418
37,52773	1,28418
37,53772	1,27930
37,54772	1,28906
37,55771	1,28418
37,56771	1,28418
37,57770	1,28418
37,58769	1,28418
37,59769	1,28906
37,60768	1,28418
37,61768	1,27930
37,62767	1,28418
37,63767	1,28418
37,64766	1,28418
37,65765	1,28906
37,66765	1,28418
37,67764	1,28418
37,68764	1,28418
37,69763	1,28418
37,70762	1,28418
37,71762	1,28906
37,72761	1,28906
37,73761	1,28418
37,74760	1,28418
37,75759	1,28418
37,76759	1,28418
37,77758	1,27930
37,78758	1,27441
37,79757	1,28418
37,80756	1,28906
37,81756	1,28418
37,82755	1,28418
37,83755	1,28418
37,84754	1,28418
37,85753	1,28906
37,86753	1,27930
37,87752	1,28418
37,88752	1,27930
37,89751	1,28418
37,90750	1,28418
37,91750	1,28418
37,92749	1,29395
37,93749	1,28418
37,94748	1,28418
37,95748	1,27930
37,96747	1,27930
37,97746	1,28418
37,98746	1,28906
37,99745	1,28418
38,00745	1,28418
38,01744	1,28418
38,02743	1,28418
38,03743	1,28418
38,04742	1,28418
38,05742	1,28418
38,06741	1,28418
38,07740	1,28418
38,08740	1,28418
38,09739	1,28906
38,10739	1,28418
38,11738	1,28418
38,12737	1,28418
38,13737	1,28418
38,14736	1,27930
38,15736	1,28418
38,16735	1,28418
38,17734	1,28418
38,18734	1,28418
38,19733	1,28418
38,20733	1,28418
38,21732	1,28418
38,22732	1,28418
38,23731	1,28418
38,24730	1,28418
38,25730	1,28418
38,26729	1,28418
38,27729	1,27930
38,28728	1,28906
38,29727	1,28418
38,30727	1,28418
38,31726	1,28418
38,32726	1,27930
38,33725	1,28418
38,34724	1,28418
38,35724	1,28418
38,36723	1,28418
38,37723	1,28418
38,38722	1,28418
38,39721	1,28418
38,40721	1,28418
38,41720	1,28906
38,42720	1,27930
38,43719	1,28906
38,44718	1,28418
38,45718	1,28906
38,46717	1,28418
38,47717	1,28418
38,48716	1,28418
38,49716	1,28906
38,50715	1,28418
38,51714	1,28418
38,52714	1,27930
38,53713	1,28418
38,54713	1,28418
38,55712	1,28418
38,56711	1,28418
38,57711	1,28418
38,58710	1,28418
38,59710	1,28418
38,60709	1,28418
38,61708	1,29395
38,62708	1,28418
38,63707	1,28418
38,64707	1,28906
38,65706	1,28418
38,66705	1,28418
38,67705	1,28906
38,68704	1,28418
38,69704	1,28418
38,70703	1,28418
38,71702	1,28418
38,72702	1,27930
38,73701	1,28418
38,74701	1,28418
38,75700	1,28418
38,76699	1,28418
38,77699	1,28906
38,78698	1,28418
38,79698	1,28418
38,80697	1,28418
38,81697	1,27930
38,82696	1,28418
38,83695	1,28418
38,84695	1,28418
38,85694	1,28418
38,86694	1,28418
38,87693	1,28418
38,88692	1,28418
38,89692	1,27930
38,90691	1,28418
38,91691	1,28418
38,92690	1,28418
38,93689	1,28418
38,94689	1,28906
38,95688	1,28418
38,96688	1,27930
38,97687	1,28418
38,98686	1,28418
38,99686	1,28418
39,00685	1,28418
39,01685	1,28418
39,02684	1,28906
39,03683	1,28418
39,04683	1,28418
39,05682	1,28418
39,06682	1,28418
39,07681	1,28906
39,08681	1,28418
39,09680	1,28418
39,10679	1,28418
39,11679	1,28906
39,12678	1,28418
39,13678	1,27930
39,14677	1,28418
39,15676	1,28418
39,16676	1,28906
39,17675	1,28418
39,18675	1,28418
39,19674	1,28906
39,20673	1,28418
39,21673	1,28418
39,22672	1,28418
39,23672	1,27930
39,24671	1,28906
39,25670	1,28418
39,26670	1,28418
39,27669	1,28418
39,28669	1,28418
39,29668	1,29883
39,30667	1,28418
39,31667	1,28906
39,32666	1,28418
39,33666	1,28418
39,34665	1,28418
39,35664	1,28418
39,36664	1,28418
39,37663	1,28418
39,38663	1,28418
39,39662	1,28906
39,40662	1,27930
39,41661	1,28418
39,42660	1,28906
39,43660	1,28906
39,44659	1,28906
39,45659	1,28418
39,46658	1,28418
39,47657	1,28418
39,48657	1,28418
39,49656	1,29395
39,50656	1,28418
39,51655	1,28418
39,52654	1,28418
39,53654	1,28418
39,54653	1,28418
39,55653	1,28418
39,56652	1,28906
39,57651	1,28906
39,58651	1,28418
39,59650	1,28418
39,60650	1,28418
39,61649	1,28906
39,62648	1,28418
39,63648	1,28418
39,64647	1,28906
39,65647	1,28418
39,66646	1,28418
39,67646	1,27930
39,68645	1,28418
39,69644	1,28418
39,70644	1,28418
39,71643	1,28418
39,72643	1,28418
39,73642	1,28418
39,74641	1,28418
39,75641	1,28418
39,76640	1,27930
39,77640	1,28418
39,78639	1,28418
39,79638	1,27930
39,80638	1,28906
39,81637	1,28418
39,82637	1,28418
39,83636	1,28418
39,84635	1,28906
39,85635	1,28906
39,86634	1,27930
39,87634	1,28418
39,88633	1,28418
39,89632	1,28418
39,90632	1,28418
39,91631	1,28418
39,92631	1,28418
39,93630	1,28418
39,94630	1,28418
39,95629	1,27930
39,96628	1,28418
39,97628	1,28418
39,98627	1,28906
39,99627	1,28418
40,00626	1,28418
40,01625	1,28418
40,02625	1,28418
40,03624	1,28418
40,04624	1,27441
40,05623	1,28418
40,06622	1,28418
40,07622	1,28418
40,08621	1,28418
40,09621	1,28418
40,10620	1,28418
40,11619	1,28418
40,12619	1,28418
40,13618	1,29395
40,14618	1,28418
40,15617	1,28906
40,16616	1,28418
40,17616	1,28418
40,18615	1,28906
40,19615	1,28418
40,20614	1,28906
40,21613	1,28418
40,22613	1,28418
40,23612	1,28418
40,24612	1,28906
40,25611	1,27930
40,26611	1,28418
40,27610	1,28418
40,28609	1,27930
40,29609	1,29395
40,30608	1,28418
40,31608	1,28418
40,32607	1,28906
40,33606	1,27930
40,34606	1,28418
40,35605	1,28418
40,36605	1,28906
40,37604	1,27930
40,38603	1,28418
40,39603	1,28906
40,40602	1,28418
40,41602	1,28906
40,42601	1,28418
40,43600	1,29395
40,44600	1,28906
40,45599	1,28418
40,46599	1,28418
40,47598	1,28418
40,48597	1,28906
40,49597	1,28418
40,50596	1,27930
40,51596	1,28906
40,52595	1,27930
40,53595	1,29395
40,54594	1,28418
40,55593	1,28906
40,56593	1,28418
40,57592	1,28418
40,58592	1,28906
40,59591	1,28418
40,60590	1,28906
40,61590	1,28418
40,62589	1,28906
40,63589	1,28418
40,64588	1,28418
40,65587	1,28418
40,66587	1,28418
40,67586	1,29395
40,68586	1,29395
40,69585	1,28906
40,70584	1,28906
40,71584	1,28418
40,72583	1,29395
40,73583	1,28418
40,74582	1,28906
40,75581	1,28418
40,76581	1,28418
40,77580	1,28906
40,78580	1,28418
40,79579	1,27930
40,80579	1,28418
40,81578	1,28418
40,82577	1,28418
40,83577	1,27930
40,84576	1,28418
40,85576	1,28418
40,86575	1,27930
40,87574	1,28418
40,88574	1,28906
40,89573	1,28418
40,90573	1,29395
40,91572	1,27930
40,92571	1,29395
40,93571	1,28418
40,94570	1,28418
40,95570	1,28418
40,96569	1,28418
40,97568	1,28418
40,98568	1,28418
40,99567	1,28418
41,00567	1,28906
41,01566	1,28906
41,02565	1,27930
41,03565	1,28906
41,04564	1,28418
41,05564	1,28906
41,06563	1,27930
41,07562	1,28418
41,08562	1,28418
41,09561	1,28418
41,10561	1,27930
41,11560	1,28418
41,12560	1,28418
41,13559	1,28906
41,14558	1,28418
41,15558	1,28418
41,16557	1,28906
41,17557	1,28906
41,18556	1,28906
41,19555	1,28418
41,20555	1,28418
41,21554	1,28906
41,22554	1,28418
41,23553	1,27930
41,24552	1,28418
41,25552	1,28418
41,26551	1,28906
41,27551	1,28418
41,28550	1,28418
41,29549	1,28418
41,30549	1,28418
41,31548	1,27930
41,32548	1,28906
41,33547	1,28906
41,34546	1,28418
41,35546	1,27930
41,36545	1,28418
41,37545	1,28418
41,38544	1,28418
41,39544	1,27930
41,40543	1,28418
41,41542	1,27930
41,42542	1,28418
41,43541	1,29395
41,44541	1,28418
41,45540	1,28418
41,46539	1,28418
41,47539	1,28418
41,48538	1,28418
41,49538	1,27930
41,50537	1,28906
41,51536	1,28418
41,52536	1,28906
41,53535	1,28418
41,54535	1,28418
41,55534	1,28906
41,56533	1,28418
41,57533	1,28906
41,58532	1,27930
41,59532	1,28418
41,60531	1,28418
41,61530	1,28418
41,62530	1,28418
41,63529	1,28418
41,64529	1,28906
41,65528	1,28418
41,66528	1,27930
41,67527	1,28418
41,68526	1,28906
41,69526	1,28418
41,70525	1,28418
41,71525	1,27930
41,72524	1,28906
41,73523	1,28418
41,74523	1,27930
41,75522	1,28418
41,76522	1,27930
41,77521	1,28418
41,78520	1,27930
41,79520	1,28906
41,80519	1,28418
41,81519	1,28418
41,82518	1,27930
41,83517	1,28418
41,84517	1,28418
41,85516	1,28418
41,86516	1,28418
41,87515	1,27930
41,88514	1,28906
41,89514	1,28418
41,90513	1,28418
41,91513	1,28418
41,92512	1,28418
41,93511	1,28418
41,94511	1,28418
41,95510	1,27930
41,96510	1,28418
41,97509	1,27930
41,98509	1,28418
41,99508	1,27930
42,00507	1,28906
42,01507	1,28418
42,02506	1,27930
42,03506	1,28418
42,04505	1,28418
42,05504	1,27930
42,06504	1,28418
42,07503	1,28418
42,08503	1,28418
42,09502	1,28906
42,10501	1,28418
42,11501	1,28418
42,12500	1,28906
42,13500	1,28906
42,14499	1,27930
42,15498	1,28418
42,16498	1,27930
42,17497	1,28418
42,18497	1,28418
42,19496	1,28906
42,20495	1,28418
42,21495	1,27930
42,22494	1,27930
42,23494	1,27930
42,24493	1,28906
42,25493	1,28906
42,26492	1,28418
42,27491	1,28418
42,28491	1,28418
42,29490	1,28418
42,30490	1,28906
42,31489	1,28418
42,32488	1,28418
42,33488	1,28418
42,34487	1,28418
42,35487	1,28418
42,36486	1,28418
42,37485	1,28906
42,38485	1,28418
42,39484	1,27930
42,40484	1,28418
42,41483	1,28906
42,42482	1,28906
42,43482	1,27441
42,44481	1,29395
42,45481	1,28418
42,46480	1,28418
42,47479	1,28906
42,48479	1,27930
42,49478	1,28906
42,50478	1,28906
42,51477	1,28418
42,52476	1,28906
42,53476	1,28418
42,54475	1,29395
42,55475	1,28418
42,56474	1,28418
42,57474	1,28418
42,58473	1,28906
42,59472	1,28418
42,60472	1,27930
42,61471	1,28418
42,62471	1,28418
42,63470	1,28418
42,64469	1,29395
42,65469	1,28906
42,66468	1,28418
42,67468	1,28418
42,68467	1,28418
42,69466	1,28418
42,70466	1,28906
42,71465	1,27930
42,72465	1,28418
42,73464	1,28906
42,74463	1,28418
42,75463	1,28906
42,76462	1,28418
42,77462	1,27930
42,78461	1,28418
42,79460	1,27930
42,80460	1,28418
42,81459	1,27930
42,82459	1,28906
42,83458	1,28418
42,84458	1,27930
42,85457	1,28906
42,86456	1,28906
42,87456	1,28418
42,88455	1,28418
42,89455	1,28418
42,90454	1,28906
42,91453	1,28418
42,92453	1,28906
42,93452	1,28418
42,94452	1,28906
42,95451	1,27930
42,96450	1,28418
42,97450	1,28906
42,98449	1,28418
42,99449	1,28418
43,00448	1,28418
43,01447	1,28418
43,02447	1,28418
43,03446	1,28906
43,04446	1,28418
43,05445	1,28418
43,06444	1,28906
43,07444	1,27441
43,08443	1,28418
43,09443	1,28906
43,10442	1,28418
43,11442	1,28418
43,12441	1,28418
43,13440	1,28418
43,14440	1,28906
43,15439	1,27930
43,16439	1,28906
43,17438	1,28418
43,18437	1,28906
43,19437	1,28418
43,20436	1,28418
43,21436	1,28906
43,22435	1,27930
43,23434	1,27930
43,24434	1,28906
43,25433	1,28418
43,26433	1,29883
43,27432	1,28418
43,28431	1,27930
43,29431	1,28906
43,30430	1,28418
43,31430	1,28418
43,32429	1,28906
43,33428	1,28418
43,34428	1,28418
43,35427	1,27930
43,36427	1,27930
43,37426	1,28418
43,38425	1,28418
43,39425	1,28418
43,40424	1,27930
43,41424	1,28906
43,42423	1,27930
43,43423	1,28418
43,44422	1,27930
43,45421	1,28418
43,46421	1,28418
43,47420	1,28906
43,48420	1,28906
43,49419	1,28418
43,50418	1,28906
43,51418	1,28418
43,52417	1,28418
43,53417	1,28906
43,54416	1,27930
43,55415	1,28906
43,56415	1,27930
43,57414	1,28906
43,58414	1,28418
43,59413	1,28418
43,60412	1,28418
43,61412	1,28418
43,62411	1,28906
43,63411	1,28418
43,64410	1,29395
43,65409	1,28418
43,66409	1,28418
43,67408	1,28418
43,68408	1,28418
43,69407	1,28418
43,70407	1,28906
43,71406	1,27930
43,72405	1,28906
43,73405	1,28418
43,74404	1,28418
43,75404	1,28906
43,76403	1,29395
43,77402	1,28418
43,78402	1,28418
43,79401	1,27930
43,80401	1,28906
43,81400	1,28418
43,82399	1,28418
43,83399	1,28906
43,84398	1,28418
43,85398	1,29395
43,86397	1,27930
43,87396	1,28418
43,88396	1,28906
43,89395	1,28906
43,90395	1,28906
43,91394	1,28418
43,92393	1,28418
43,93393	1,28418
43,94392	1,27930
43,95392	1,28418
43,96391	1,28418
43,97391	1,27930
43,98390	1,28418
43,99389	1,27930
44,00389	1,27930
44,01388	1,28418
44,02388	1,28418
44,03387	1,28906
44,04386	1,28418
44,05386	1,29395
44,06385	1,28906
44,07385	1,28418
44,08384	1,28418
44,09383	1,28418
44,10383	1,28418
44,11382	1,28906
44,12382	1,28906
44,13381	1,28418
44,14380	1,28906
44,15380	1,28418
44,16379	1,28906
44,17379	1,27930
44,18378	1,28906
44,19377	1,27930
44,20377	1,27930
44,21376	1,28906
44,22376	1,28418
44,23375	1,28418
44,24374	1,28418
44,25374	1,28418
44,26373	1,28418
44,27373	1,28418
44,28372	1,28418
44,29372	1,27930
44,30371	1,28418
44,31370	1,28418
44,32370	1,28418
44,33369	1,28906
44,34369	1,28418
44,35368	1,28906
44,36367	1,28418
44,37367	1,28418
44,38366	1,28418
44,39366	1,28418
44,40365	1,28418
44,41364	1,29395
44,42364	1,27930
44,43363	1,28906
44,44363	1,28906
44,45362	1,27930
44,46361	1,27930
44,47361	1,28418
44,48360	1,27930
44,49360	1,28418
44,50359	1,28418
44,51358	1,28418
44,52358	1,28906
44,53357	1,27930
44,54357	1,28418
44,55356	1,28418
44,56356	1,28418
44,57355	1,28418
44,58354	1,28906
44,59354	1,28418
44,60353	1,28906
44,61353	1,27930
44,62352	1,28906
44,63351	1,28418
44,64351	1,28906
44,65350	1,28418
44,66350	1,28418
44,67349	1,28418
44,68348	1,28418
44,69348	1,27930
44,70347	1,28418
44,71347	1,28418
44,72346	1,28418
44,73345	1,28418
44,74345	1,29395
44,75344	1,28418
44,76344	1,28906
44,77343	1,28418
44,78342	1,28418
44,79342	1,28418
44,80341	1,28906
44,81341	1,28418
44,82340	1,28906
44,83339	1,27930
44,84339	1,28418
44,85338	1,28418
44,86338	1,28418
44,87337	1,29883
44,88337	1,28906
44,89336	1,28906
44,90335	1,28418
44,91335	1,28906
44,92334	1,27930
44,93334	1,28906
44,94333	1,28906
44,95332	1,28906
44,96332	1,28418
44,97331	1,28906
44,98331	1,28906
44,99330	1,28418
45,00329	1,28906
45,01329	1,28418
45,02328	1,28418
45,03328	1,28418
45,04327	1,28418
45,05326	1,28418
45,06326	1,28906
45,07325	1,28906
45,08325	1,28418
45,09324	1,28418
45,10323	1,28418
45,11323	1,27930
45,12322	1,28418
45,13322	1,28418
45,14321	1,28906
45,15321	1,28418
45,16320	1,28418
45,17319	1,28418
45,18319	1,28906
45,19318	1,28418
45,20318	1,27930
45,21317	1,29395
45,22316	1,28418
45,23316	1,28906
45,24315	1,28906
45,25315	1,27441
45,26314	1,28906
45,27313	1,28418
45,28313	1,28418
45,29312	1,28906
45,30312	1,28418
45,31311	1,28418
45,32310	1,28906
45,33310	1,28418
45,34309	1,28906
45,35309	1,27930
45,36308	1,28418
45,37307	1,28418
45,38307	1,28906
45,39306	1,28906
45,40306	1,28418
45,41305	1,28906
45,42305	1,28418
45,43304	1,28418
45,44303	1,28418
45,45303	1,28418
45,46302	1,28418
45,47302	1,29883
45,48301	1,27930
45,49300	1,28418
45,50300	1,27930
45,51299	1,28418
45,52299	1,27930
45,53298	1,28906
45,54297	1,27930
45,55297	1,28418
45,56296	1,28418
45,57296	1,28418
45,58295	1,28418
45,59294	1,28418
45,60294	1,28418
45,61293	1,28906
45,62293	1,28418
45,63292	1,28906
45,64291	1,28418
45,65291	1,28418
45,66290	1,28906
45,67290	1,27930
45,68289	1,28906
45,69288	1,27930
45,70288	1,28906
45,71287	1,28906
45,72287	1,28418
45,73286	1,28418
45,74286	1,28418
45,75285	1,28418
45,76284	1,28418
45,77284	1,28418
45,78283	1,28418
45,79283	1,28418
45,80282	1,28906
45,81281	1,27930
45,82281	1,28418
45,83280	1,29395
45,84280	1,28418
45,85279	1,28906
45,86278	1,28418
45,87278	1,27930
45,88277	1,28906
45,89277	1,27930
45,90276	1,29395
45,91275	1,28418
45,92275	1,28418
45,93274	1,28418
45,94274	1,28418
45,95273	1,28418
45,96272	1,28418
45,97272	1,27930
45,98271	1,28906
45,99271	1,28418
46,00270	1,28418
46,01270	1,27930
46,02269	1,28418
46,03268	1,28418
46,04268	1,28418
46,05267	1,28906
46,06267	1,28418
46,07266	1,28906
46,08265	1,28418
46,09265	1,28906
46,10264	1,28418
46,11264	1,27930
46,12263	1,28418
46,13262	1,28418
46,14262	1,28906
46,15261	1,28906
46,16261	1,27930
46,17260	1,27930
46,18259	1,29395
46,19259	1,28418
46,20258	1,28418
46,21258	1,28906
46,22257	1,27930
46,23256	1,28418
46,24256	1,28418
46,25255	1,27441
46,26255	1,28906
46,27254	1,27930
46,28254	1,28418
46,29253	1,28418
46,30252	1,28418
46,31252	1,28906
46,32251	1,28418
46,33251	1,27930
46,34250	1,28418
46,35249	1,28906
46,36249	1,29395
46,37248	1,28418
46,38248	1,27930
46,39247	1,28906
46,40246	1,28418
46,41246	1,28418
46,42245	1,28418
46,43245	1,28906
46,44244	1,28418
46,45243	1,28906
46,46243	1,28418
46,47242	1,28418
46,48242	1,28418
46,49241	1,28418
46,50240	1,28418
46,51240	1,27441
46,52239	1,28906
46,53239	1,28418
46,54238	1,28906
46,55237	1,28418
46,56237	1,28418
46,57236	1,28418
46,58236	1,28906
46,59235	1,28418
46,60235	1,28418
46,61234	1,27930
46,62233	1,28418
46,63233	1,28418
46,64232	1,28418
46,65232	1,27930
46,66231	1,27930
46,67230	1,28906
46,68230	1,28418
46,69229	1,28418
46,70229	1,28906
46,71228	1,27930
46,72227	1,27930
46,73227	1,28906
46,74226	1,27930
46,75226	1,28418
46,76225	1,27930
46,77224	1,28418
46,78224	1,28418
46,79223	1,27930
46,80223	1,27930
46,81222	1,28418
46,82221	1,28418
46,83221	1,28418
46,84220	1,28418
46,85220	1,28418
46,86219	1,28418
46,87219	1,28418
46,88218	1,28418
46,89217	1,29395
46,90217	1,28418
46,91216	1,28418
46,92216	1,28418
46,93215	1,28906
46,94214	1,28418
46,95214	1,28418
46,96213	1,29395
46,97213	1,28418
46,98212	1,28418
46,99211	1,28418
47,00211	1,27930
47,01210	1,28418
47,02210	1,27930
47,03209	1,28418
47,04208	1,27930
47,05208	1,28418
47,06207	1,28418
47,07207	1,28418
47,08206	1,28906
47,09205	1,28906
47,10205	1,28418
47,11204	1,28906
47,12204	1,28418
47,13203	1,28906
47,14202	1,27930
47,15202	1,28418
47,16201	1,27930
47,17201	1,28418
47,18200	1,28418
47,19200	1,28418
47,20199	1,28418
47,21198	1,28418
47,22198	1,27930
47,23197	1,28418
47,24197	1,28418
47,25196	1,28418
47,26195	1,28418
47,27195	1,28906
47,28194	1,28418
47,29194	1,28418
47,30193	1,28418
47,31192	1,29395
47,32192	1,28418
47,33191	1,28418
47,34191	1,28906
47,35190	1,28418
47,36189	1,27930
47,37189	1,27930
47,38188	1,28906
47,39188	1,28418
47,40187	1,28906
47,41186	1,28418
47,42186	1,28418
47,43185	1,28418
47,44185	1,28906
47,45184	1,28418
47,46184	1,27930
47,47183	1,28906
47,48182	1,28418
47,49182	1,28418
47,50181	1,28906
47,51181	1,27930
47,52180	1,28906
47,53179	1,28418
47,54179	1,28906
47,55178	1,28906
47,56178	1,27930
47,57177	1,28906
47,58176	1,28418
47,59176	1,28906
47,60175	1,29883
47,61175	1,27930
47,62174	1,28418
47,63173	1,28418
47,64173	1,28906
47,65172	1,28418
47,66172	1,27930
47,67171	1,28906
47,68170	1,28906
47,69170	1,28418
47,70169	1,28906
47,71169	1,28418
47,72168	1,28418
47,73168	1,28906
47,74167	1,27930
47,75166	1,28418
47,76166	1,28418
47,77165	1,28906
47,78165	1,28418
47,79164	1,28418
47,80163	1,28418
47,81163	1,28418
47,82162	1,28418
47,83162	1,29395
47,84161	1,27930
47,85160	1,28906
47,86160	1,27930
47,87159	1,28418
47,88159	1,28906
47,89158	1,27930
47,90157	1,28418
47,91157	1,28418
47,92156	1,27930
47,93156	1,28418
47,94155	1,28418
47,95154	1,28418
47,96154	1,28906
47,97153	1,27930
47,98153	1,28906
47,99152	1,28418
48,00151	1,29883
48,01151	1,27930
48,02150	1,28418
48,03150	1,28418
48,04149	1,28418
48,05149	1,27930
48,06148	1,28418
48,07147	1,27930
48,08147	1,28906
48,09146	1,28418
48,10146	1,28418
48,11145	1,28906
48,12144	1,28418
48,13144	1,28906
48,14143	1,28906
48,15143	1,27930
48,16142	1,28418
48,17141	1,28418
48,18141	1,28418
48,19140	1,28418
48,20140	1,27930
48,21139	1,27930
48,22138	1,28906
48,23138	1,28418
48,24137	1,29395
48,25137	1,28418
48,26136	1,27930
48,27135	1,28418
48,28135	1,28418
48,29134	1,28418
48,30134	1,27930
48,31133	1,28418
48,32133	1,28418
48,33132	1,28906
48,34131	1,28906
48,35131	1,28906
48,36130	1,28418
48,37130	1,28418
48,38129	1,27930
48,39128	1,28418
48,40128	1,28418
48,41127	1,28906
48,42127	1,29395
48,43126	1,28418
48,44125	1,28418
48,45125	1,28418
48,46124	1,28418
48,47124	1,27930
48,48123	1,28418
48,49122	1,28906
48,50122	1,28906
48,51121	1,28418
48,52121	1,28418
48,53120	1,28418
48,54119	1,28418
48,55119	1,28906
48,56118	1,28418
48,57118	1,28418
48,58117	1,28418
48,59117	1,28418
48,60116	1,28906
48,61115	1,28418
48,62115	1,28906
48,63114	1,27441
48,64114	1,28418
48,65113	1,28418
48,66112	1,27930
48,67112	1,28418
48,68111	1,28418
48,69111	1,28418
48,70110	1,28906
48,71109	1,28418
48,72109	1,28906
48,73108	1,29395
48,74108	1,28418
48,75107	1,29883
48,76106	1,28418
48,77106	1,27930
48,78105	1,28418
48,79105	1,27930
48,80104	1,28418
48,81103	1,27930
48,82103	1,27930
48,83102	1,28906
48,84102	1,28418
48,85101	1,29395
48,86100	1,28418
48,87100	1,28906
48,88099	1,27930
48,89099	1,28418
48,90098	1,27930
48,91098	1,29395
48,92097	1,28418
48,93096	1,27930
48,94096	1,28418
48,95095	1,28906
48,96095	1,28906
48,97094	1,27930
48,98093	1,28418
48,99093	1,28418
49,00092	1,28418
49,01092	1,28906
49,02091	1,27930
49,03090	1,28906
49,04090	1,28418
49,05089	1,28906
49,06089	1,28418
49,07088	1,28418
49,08087	1,28418
49,09087	1,29395
49,10086	1,28418
49,11086	1,28906
49,12085	1,28418
49,13084	1,27930
49,14084	1,28418
49,15083	1,27930
49,16083	1,28418
49,17082	1,28418
49,18082	1,28906
49,19081	1,28906
49,20080	1,28418
49,21080	1,28418
49,22079	1,28906
49,23079	1,28418
49,24078	1,28418
49,25077	1,29395
49,26077	1,28418
49,27076	1,28418
49,28076	1,28906
49,29075	1,28418
49,30074	1,28906
49,31074	1,28418
49,32073	1,28418
49,33073	1,28906
49,34072	1,28418
49,35071	1,28418
49,36071	1,28418
49,37070	1,28418
49,38070	1,28418
49,39069	1,28906
49,40068	1,28418
49,41068	1,28906
49,42067	1,27930
49,43067	1,28418
49,44066	1,28418
49,45066	1,28418
49,46065	1,27930
49,47064	1,28906
49,48064	1,27930
49,49063	1,28906
49,50063	1,27930
49,51062	1,28418
49,52061	1,28906
49,53061	1,28418
49,54060	1,28418
49,55060	1,28906
49,56059	1,28418
49,57058	1,29395
49,58058	1,27930
49,59057	1,28418
49,60057	1,28418
49,61056	1,27930
49,62055	1,27930
49,63055	1,28418
49,64054	1,28418
49,65054	1,28418
49,66053	1,27930
49,67052	1,28906
49,68052	1,28418
49,69051	1,28906
49,70051	1,29395
49,71050	1,27930
49,72049	1,28418
49,73049	1,28906
49,74048	1,28418
49,75048	1,29395
49,76047	1,27930
49,77047	1,28418
49,78046	1,28418
49,79045	1,28418
49,80045	1,28906
49,81044	1,28418
49,82044	1,28418
49,83043	1,28418
49,84042	1,28418
49,85042	1,28418
49,86041	1,28418
49,87041	1,28906
49,88040	1,29395
49,89039	1,28418
49,90039	1,28418
49,91038	1,28906
49,92038	1,28906
49,93037	1,28418
49,94036	1,28418
49,95036	1,27441
49,96035	1,28418
49,97035	1,27930
49,98034	1,28418
49,99033	1,28906
50,00033	1,27930
50,01032	1,28906
50,02032	1,27930
50,03031	1,28418
50,04031	1,28906
50,05030	1,28418
50,06029	1,28906
50,07029	1,28418
50,08028	1,28418
50,09028	1,27930
50,10027	1,28418
50,11026	1,28418
50,12026	1,28906
50,13025	1,28906
50,14025	1,28418
50,15024	1,27930
50,16023	1,28906
50,17023	1,28418
50,18022	1,28906
50,19022	1,28906
50,20021	1,28418
50,21020	1,28418
50,22020	1,28418
50,23019	1,27930
50,24019	1,27930
50,25018	1,28906
50,26017	1,28418
50,27017	1,27930
50,28016	1,28906
50,29016	1,28418
50,30015	1,28418
50,31014	1,28418
50,32014	1,28906
50,33013	1,27930
50,34013	1,28418
50,35012	1,28418
50,36012	1,28418
50,37011	1,28418
50,38010	1,27930
50,39010	1,28906
50,40009	1,27930
50,41009	1,28418
50,42008	1,28418
50,43007	1,27930
50,44007	1,28418
50,45006	1,29395
50,46006	1,28418
50,47005	1,28418
50,48004	1,28418
50,49004	1,28906
50,50003	1,28418
50,51003	1,27930
50,52002	1,28418
50,53001	1,28418
50,54001	1,28418
50,55000	1,28906
50,56000	1,28418
50,56999	1,28906
50,57998	1,28418
50,58998	1,28418
50,59997	1,27930
50,60997	1,28418
50,61996	1,28418
50,62996	1,28418
50,63995	1,28418
50,64994	1,28418
50,65994	1,27930
50,66993	1,28418
50,67993	1,28418
50,68992	1,27930
50,69991	1,27930
50,70991	1,28418
50,71990	1,28418
50,72990	1,28906
50,73989	1,28418
50,74988	1,28418
50,75988	1,28418
50,76987	1,28418
50,77987	1,28906
50,78986	1,27930
50,79985	1,28418
50,80985	1,28418
50,81984	1,28418
50,82984	1,28906
50,83983	1,27930
50,84982	1,28418
50,85982	1,28418
50,86981	1,28418
50,87981	1,28418
50,88980	1,27930
50,89980	1,28906
50,90979	1,28418
50,91978	1,28418
50,92978	1,28906
50,93977	1,28906
50,94977	1,28418
50,95976	1,28906
50,96975	1,28418
50,97975	1,28418
50,98974	1,28418
50,99974	1,28418
51,00973	1,28418
51,01972	1,28418
51,02972	1,28418
51,03971	1,28418
51,04971	1,28418
51,05970	1,28418
51,06969	1,27930
51,07969	1,28418
51,08968	1,28418
51,09968	1,27930
51,10967	1,28418
51,11966	1,27930
51,12966	1,28906
51,13965	1,28418
51,14965	1,27930
51,15964	1,28906
51,16963	1,28418
51,17963	1,27930
51,18962	1,28418
51,19962	1,28418
51,20961	1,28418
51,21961	1,28418
51,22960	1,28418
51,23959	1,28906
51,24959	1,28418
51,25958	1,27930
51,26958	1,28906
51,27957	1,27930
51,28956	1,28418
51,29956	1,28906
51,30955	1,28906
51,31955	1,28418
51,32954	1,28418
51,33953	1,28906
51,34953	1,28418
51,35952	1,28418
51,36952	1,27930
51,37951	1,28418
51,38950	1,28418
51,39950	1,28418
51,40949	1,28906
51,41949	1,28418
51,42948	1,28418
51,43947	1,28906
51,44947	1,28418
51,45946	1,28418
51,46946	1,28418
51,47945	1,28418
51,48945	1,28418
51,49944	1,28418
51,50943	1,27930
51,51943	1,28906
51,52942	1,28906
51,53942	1,28418
51,54941	1,28906
51,55940	1,28906
51,56940	1,28906
51,57939	1,29395
51,58939	1,28906
51,59938	1,28906
51,60937	1,28906
51,61937	1,28906
51,62936	1,28906
51,63936	1,28418
51,64935	1,28418
51,65934	1,28418
51,66934	1,28418
51,67933	1,28418
51,68933	1,28418
51,69932	1,28906
51,70931	1,28418
51,71931	1,28906
51,72930	1,28906
51,73930	1,28418
51,74929	1,28906
51,75929	1,28906
51,76928	1,27930
51,77927	1,28906
51,78927	1,27930
51,79926	1,29395
51,80926	1,28906
51,81925	1,28418
51,82924	1,28418
51,83924	1,28418
51,84923	1,28418
51,85923	1,28906
51,86922	1,28906
51,87921	1,28418
51,88921	1,28418
51,89920	1,28418
51,90920	1,28418
51,91919	1,27930
51,92918	1,28418
51,93918	1,28906
51,94917	1,28418
51,95917	1,28906
51,96916	1,27930
51,97915	1,28418
51,98915	1,27930
51,99914	1,28906
52,00914	1,28418
52,01913	1,28906
52,02912	1,28906
52,03912	1,28418
52,04911	1,28418
52,05911	1,27930
52,06910	1,27930
52,07910	1,28906
52,08909	1,28418
52,09908	1,27930
52,10908	1,28418
52,11907	1,28906
52,12907	1,27930
52,13906	1,28418
52,14905	1,28906
52,15905	1,28906
52,16904	1,28906
52,17904	1,28906
52,18903	1,28906
52,19902	1,28418
52,20902	1,28418
52,21901	1,27930
52,22901	1,27930
52,23900	1,28418
52,24899	1,27441
52,25899	1,28418
52,26898	1,28906
52,27898	1,27930
52,28897	1,29395
52,29896	1,28418
52,30896	1,28906
52,31895	1,28418
52,32895	1,28418
52,33894	1,28418
52,34894	1,28418
52,35893	1,28418
52,36892	1,28418
52,37892	1,28418
52,38891	1,28906
52,39891	1,28418
52,40890	1,28418
52,41889	1,28906
52,42889	1,28906
52,43888	1,28418
52,44888	1,28418
52,45887	1,28418
52,46886	1,28418
52,47886	1,28418
52,48885	1,28418
52,49885	1,28906
52,50884	1,28418
52,51883	1,28418
52,52883	1,28906
52,53882	1,28906
52,54882	1,28418
52,55881	1,28418
52,56880	1,28906
52,57880	1,28418
52,58879	1,28418
52,59879	1,28906
52,60878	1,27930
52,61877	1,28906
52,62877	1,27930
52,63876	1,28906
52,64876	1,28906
52,65875	1,28418
52,66875	1,28418
52,67874	1,28418
52,68873	1,28906
52,69873	1,28418
52,70872	1,28418
52,71872	1,28906
52,72871	1,28418
52,73870	1,28418
52,74870	1,28418
52,75869	1,28418
52,76869	1,28906
52,77868	1,28906
52,78867	1,28906
52,79867	1,28418
52,80866	1,28418
52,81866	1,28906
52,82865	1,28418
52,83864	1,28418
52,84864	1,28418
52,85863	1,28418
52,86863	1,28418
52,87862	1,28418
52,88861	1,28906
52,89861	1,28418
52,90860	1,29883
52,91860	1,28418
52,92859	1,27930
52,93859	1,28418
52,94858	1,28418
52,95857	1,28906
52,96857	1,28418
52,97856	1,28906
52,98856	1,28418
52,99855	1,28418
53,00854	1,28906
53,01854	1,27930
53,02853	1,28906
53,03853	1,28906
53,04852	1,28418
53,05851	1,28906
53,06851	1,27930
53,07850	1,28906
53,08850	1,28418
53,09849	1,28418
53,10848	1,28418
53,11848	1,28418
53,12847	1,28418
53,13847	1,28418
53,14846	1,27930
53,15845	1,28418
53,16845	1,28906
53,17844	1,28906
53,18844	1,28418
53,19843	1,29395
53,20843	1,28418
53,21842	1,28418
53,22841	1,28418
53,23841	1,28418
53,24840	1,28418
53,25840	1,28418
53,26839	1,27930
53,27838	1,28418
53,28838	1,28418
53,29837	1,28418
53,30837	1,28418
53,31836	1,28418
53,32835	1,29395
53,33835	1,28906
53,34834	1,27930
53,35834	1,28418
53,36833	1,28418
53,37832	1,27930
53,38832	1,27930
53,39831	1,29395
53,40831	1,28418
53,41830	1,28418
53,42829	1,28418
53,43829	1,27930
53,44828	1,28906
53,45828	1,27930
53,46827	1,28418
53,47826	1,28418
53,48826	1,28418
53,49825	1,28418
53,50825	1,28418
53,51824	1,27930
53,52824	1,28418
53,53823	1,28906
53,54822	1,28418
53,55822	1,28418
53,56821	1,28418
53,57821	1,29395
53,58820	1,28418
53,59819	1,28418
53,60819	1,28418
53,61818	1,28418
53,62818	1,28906
53,63817	1,28906
53,64816	1,28418
53,65816	1,28418
53,66815	1,28906
53,67815	1,29395
53,68814	1,27930
53,69813	1,28418
53,70813	1,28418
53,71812	1,28906
53,72812	1,28418
53,73811	1,28418
53,74810	1,27930
53,75810	1,28418
53,76809	1,28418
53,77809	1,28418
53,78808	1,28418
53,79808	1,28418
53,80807	1,28906
53,81806	1,28418
53,82806	1,28418
53,83805	1,28418
53,84805	1,28906
53,85804	1,28418
53,86803	1,28418
53,87803	1,28418
53,88802	1,28906
53,89802	1,28418
53,90801	1,28418
53,91800	1,28418
53,92800	1,28418
53,93799	1,27930
53,94799	1,28418
53,95798	1,28418
53,96797	1,28418
53,97797	1,28418
53,98796	1,28418
53,99796	1,27930
54,00795	1,28906
54,01794	1,27930
54,02794	1,28418
54,03793	1,28418
54,04793	1,29395
54,05792	1,28418
54,06792	1,28418
54,07791	1,28906
54,08790	1,28906
54,09790	1,28418
54,10789	1,28418
54,11789	1,28906
54,12788	1,28418
54,13787	1,28418
54,14787	1,27930
54,15786	1,29395
54,16786	1,27930
54,17785	1,28418
54,18784	1,28418
54,19784	1,28418
54,20783	1,28418
54,21783	1,28418
54,22782	1,28418
54,23781	1,28418
54,24781	1,27441
54,25780	1,28418
54,26780	1,28418
54,27779	1,27441
54,28778	1,28418
54,29778	1,28418
54,30777	1,28418
54,31777	1,28906
54,32776	1,28418
54,33775	1,28418
54,34775	1,28418
54,35774	1,27930
54,36774	1,28418
54,37773	1,28418
54,38773	1,28418
54,39772	1,28418
54,40771	1,28418
54,41771	1,27930
54,42770	1,28906
54,43770	1,28418
54,44769	1,28418
54,45768	1,27930
54,46768	1,28906
54,47767	1,28418
54,48767	1,27930
54,49766	1,28418
54,50765	1,28418
54,51765	1,29395
54,52764	1,28418
54,53764	1,28418
54,54763	1,28418
54,55762	1,28418
54,56762	1,28906
54,57761	1,28418
54,58761	1,28418
54,59760	1,28906
54,60759	1,28418
54,61759	1,27930
54,62758	1,28418
54,63758	1,28418
54,64757	1,28418
54,65757	1,27930
54,66756	1,29395
54,67755	1,28418
54,68755	1,28418
54,69754	1,28418
54,70754	1,27930
54,71753	1,28418
54,72752	1,28418
54,73752	1,27930
54,74751	1,28418
54,75751	1,28418
54,76750	1,28418
54,77749	1,28418
54,78749	1,28418
54,79748	1,28906
54,80748	1,28906
54,81747	1,28906
54,82746	1,28418
54,83746	1,28418
54,84745	1,28418
54,85745	1,28906
54,86744	1,28418
54,87743	1,28906
54,88743	1,29395
54,89742	1,28418
54,90742	1,27930
54,91741	1,28418
54,92740	1,28906
54,93740	1,28906
54,94739	1,28418
54,95739	1,28906
54,96738	1,28418
54,97738	1,28418
54,98737	1,27930
54,99736	1,28418
55,00736	1,28418
55,01735	1,27930
55,02735	1,28418
55,03734	1,28418
55,04733	1,28906
55,05733	1,28418
55,06732	1,29395
55,07732	1,27930
55,08731	1,29395
55,09730	1,27930
55,10730	1,28906
55,11729	1,28418
55,12729	1,28906
55,13728	1,27930
55,14727	1,28418
55,15727	1,28418
55,16726	1,28906
55,17726	1,28418
55,18725	1,28418
55,19724	1,27930
55,20724	1,27930
55,21723	1,28418
55,22723	1,28418
55,23722	1,28906
55,24722	1,28418
55,25721	1,27930
55,26720	1,28418
55,27720	1,28418
55,28719	1,28906
55,29719	1,27930
55,30718	1,27930
55,31717	1,28418
55,32717	1,27930
55,33716	1,28418
55,34716	1,28418
55,35715	1,28906
55,36714	1,28418
55,37714	1,28906
55,38713	1,28418
55,39713	1,28418
55,40712	1,28418
55,41711	1,28906
55,42711	1,28418
55,43710	1,28418
55,44710	1,28418
55,45709	1,28418
55,46708	1,28418
55,47708	1,28418
55,48707	1,28418
55,49707	1,28418
55,50706	1,27930
55,51706	1,29395
55,52705	1,28418
55,53704	1,28418
55,54704	1,28418
55,55703	1,27930
55,56703	1,28418
55,57702	1,28418
55,58701	1,29395
55,59701	1,28418
55,60700	1,28418
55,61700	1,28418
55,62699	1,28906
55,63698	1,28418
55,64698	1,29395
55,65697	1,27930
55,66697	1,28418
55,67696	1,28418
55,68695	1,28418
55,69695	1,28418
55,70694	1,28906
55,71694	1,28418
55,72693	1,28418
55,73692	1,28418
55,74692	1,28418
55,75691	1,28418
55,76691	1,28906
55,77690	1,28906
55,78689	1,28418
55,79689	1,28418
55,80688	1,28418
55,81688	1,28418
55,82687	1,28418
55,83687	1,28906
55,84686	1,28418
55,85685	1,28906
55,86685	1,28418
55,87684	1,28418
55,88684	1,28418
55,89683	1,28418
55,90682	1,28418
55,91682	1,28906
55,92681	1,28906
55,93681	1,28906
55,94680	1,27930
55,95679	1,28418
55,96679	1,28418
55,97678	1,28418
55,98678	1,28418
55,99677	1,27930
56,00676	1,28418
56,01676	1,27930
56,02675	1,28418
56,03675	1,28418
56,04674	1,28418
56,05673	1,29395
56,06673	1,27930
56,07672	1,28906
56,08672	1,28418
56,09671	1,28906
56,10671	1,28906
56,11670	1,28418
56,12669	1,28418
56,13669	1,28418
56,14668	1,27930
56,15668	1,27930
56,16667	1,28418
56,17666	1,28418
56,18666	1,28418
56,19665	1,27930
56,20665	1,28418
56,21664	1,28418
56,22663	1,27930
56,23663	1,27930
56,24662	1,27930
56,25662	1,28418
56,26661	1,28418
56,27660	1,28418
56,28660	1,28418
56,29659	1,28418
56,30659	1,28906
56,31658	1,28418
56,32657	1,27930
56,33657	1,28418
56,34656	1,28906
56,35656	1,28418
56,36655	1,29395
56,37655	1,28418
56,38654	1,27930
56,39653	1,28418
56,40653	1,28418
56,41652	1,28418
56,42652	1,27441
56,43651	1,28418
56,44650	1,28418
56,45650	1,28418
56,46649	1,29395
56,47649	1,28418
56,48648	1,28418
56,49647	1,29395
56,50647	1,28906
56,51646	1,28906
56,52646	1,27441
56,53645	1,28906
56,54644	1,28906
56,55644	1,28906
56,56643	1,28418
56,57643	1,29395
56,58642	1,27930
56,59641	1,28906
56,60641	1,28906
56,61640	1,28418
56,62640	1,28906
56,63639	1,28418
56,64638	1,28418
56,65638	1,28418
56,66637	1,28418
56,67637	1,28906
56,68636	1,28418
56,69636	1,28906
56,70635	1,28418
56,71634	1,27930
56,72634	1,28418
56,73633	1,27930
56,74633	1,28418
56,75632	1,28906
56,76631	1,28418
56,77631	1,28418
56,78630	1,29395
56,79630	1,28418
56,80629	1,28906
56,81628	1,28418
56,82628	1,28906
56,83627	1,27930
56,84627	1,28418
56,85626	1,28906
56,86625	1,27441
56,87625	1,28418
56,88624	1,28418
56,89624	1,28418
56,90623	1,28418
56,91622	1,28906
56,92622	1,28418
56,93621	1,28906
56,94621	1,28418
56,95620	1,28418
56,96620	1,27930
56,97619	1,28906
56,98618	1,28906
56,99618	1,28418
57,00617	1,28906
57,01617	1,28418
57,02616	1,27930
57,03615	1,28418
57,04615	1,27930
57,05614	1,28418
57,06614	1,28418
57,07613	1,28418
57,08612	1,28906
57,09612	1,28418
57,10611	1,28418
57,11611	1,28418
57,12610	1,28418
57,13609	1,28418
57,14609	1,27930
57,15608	1,28418
57,16608	1,28906
57,17607	1,29395
57,18606	1,28906
57,19606	1,28906
57,20605	1,28418
57,21605	1,27930
57,22604	1,28418
57,23604	1,28418
57,24603	1,28418
57,25602	1,28418
57,26602	1,28418
57,27601	1,27930
57,28601	1,28418
57,29600	1,28418
57,30599	1,27930
57,31599	1,27930
57,32598	1,28418
57,33598	1,28906
57,34597	1,29395
57,35596	1,28418
57,36596	1,28418
57,37595	1,27930
57,38595	1,27930
57,39594	1,28418
57,40593	1,28906
57,41593	1,28418
57,42592	1,28418
57,43592	1,28418
57,44591	1,28418
57,45590	1,28906
57,46590	1,28418
57,47589	1,27930
57,48589	1,28418
57,49588	1,28418
57,50587	1,28418
57,51587	1,28906
57,52586	1,28418
57,53586	1,28418
57,54585	1,29883
57,55585	1,28906
57,56584	1,28418
57,57583	1,28418
57,58583	1,28418
57,59582	1,28418
57,60582	1,28418
57,61581	1,28418
57,62580	1,28418
57,63580	1,27930
57,64579	1,28906
57,65579	1,28418
57,66578	1,28418
57,67577	1,28418
57,68577	1,27930
57,69576	1,28906
57,70576	1,28418
57,71575	1,28418
57,72574	1,28418
57,73574	1,28418
57,74573	1,28906
57,75573	1,28906
57,76572	1,28906
57,77571	1,28906
57,78571	1,28418
57,79570	1,27930
57,80570	1,28906
57,81569	1,27930
57,82569	1,28906
57,83568	1,28418
57,84567	1,28418
57,85567	1,29395
57,86566	1,28418
57,87566	1,28906
57,88565	1,28906
57,89564	1,27930
57,90564	1,29395
57,91563	1,28418
57,92563	1,28418
57,93562	1,28418
57,94561	1,28418
57,95561	1,28418
57,96560	1,28906
57,97560	1,27930
57,98559	1,28906
57,99558	1,28418
58,00558	1,28418
58,01557	1,28418
58,02557	1,28906
58,03556	1,28906
58,04555	1,28418
58,05555	1,28906
58,06554	1,28418
58,07554	1,28418
58,08553	1,28418
58,09552	1,28418
58,10552	1,28906
58,11551	1,28906
58,12551	1,28906
58,13550	1,28906
58,14550	1,28418
58,15549	1,28906
58,16548	1,28418
58,17548	1,28418
58,18547	1,28418
58,19547	1,28418
58,20546	1,28906
58,21545	1,28906
58,22545	1,28906
58,23544	1,28418
58,24544	1,28418
58,25543	1,28906
58,26542	1,28418
58,27542	1,28418
58,28541	1,28906
58,29541	1,28418
58,30540	1,28418
58,31539	1,28906
58,32539	1,28418
58,33538	1,27930
58,34538	1,28906
58,35537	1,28418
58,36536	1,28906
58,37536	1,28418
58,38535	1,28418
58,39535	1,28906
58,40534	1,28418
58,41534	1,29395
58,42533	1,28418
58,43532	1,28906
58,44532	1,28906
58,45531	1,27930
58,46531	1,28418
58,47530	1,28418
58,48529	1,28418
58,49529	1,28418
58,50528	1,27930
58,51528	1,28418
58,52527	1,27930
58,53526	1,27930
58,54526	1,28906
58,55525	1,28418
58,56525	1,28418
58,57524	1,28906
58,58523	1,28418
58,59523	1,28906
58,60522	1,28418
58,61522	1,28906
58,62521	1,28418
58,63520	1,29883
58,64520	1,28418
58,65519	1,28906
58,66519	1,27930
58,67518	1,28418
58,68518	1,28418
58,69517	1,28906
58,70516	1,27930
58,71516	1,28906
58,72515	1,28418
58,73515	1,28418
58,74514	1,28418
58,75513	1,28418
58,76513	1,28418
58,77512	1,28418
58,78512	1,28418
58,79511	1,28906
58,80510	1,28418
58,81510	1,28418
58,82509	1,28418
58,83509	1,28418
58,84508	1,28418
58,85507	1,28906
58,86507	1,28418
58,87506	1,27930
58,88506	1,28418
58,89505	1,27930
58,90504	1,28418
58,91504	1,27441
58,92503	1,28418
58,93503	1,28418
58,94502	1,28418
58,95501	1,28418
58,96501	1,28418
58,97500	1,28418
58,98500	1,28906
58,99499	1,27930
59,00499	1,28906
59,01498	1,28418
59,02497	1,28906
59,03497	1,28418
59,04496	1,28418
59,05496	1,28418
59,06495	1,28906
59,07494	1,27930
59,08494	1,28418
59,09493	1,28418
59,10493	1,27930
59,11492	1,28418
59,12491	1,27930
59,13491	1,28906
59,14490	1,27930
59,15490	1,28418
59,16489	1,27930
59,17488	1,28418
59,18488	1,28418
59,19487	1,28418
59,20487	1,28418
59,21486	1,27930
59,22485	1,27930
59,23485	1,28418
59,24484	1,27930
59,25484	1,28418
59,26483	1,28418
59,27483	1,28906
59,28482	1,27930
59,29481	1,28906
59,30481	1,28418
59,31480	1,28418
59,32480	1,27930
59,33479	1,28906
59,34478	1,28418
59,35478	1,28418
59,36477	1,28418
59,37477	1,28418
59,38476	1,28418
59,39475	1,28418
59,40475	1,27930
59,41474	1,27930
59,42474	1,28418
59,43473	1,27930
59,44472	1,28418
59,45472	1,28418
59,46471	1,27930
59,47471	1,28418
59,48470	1,27930
59,49469	1,28906
59,50469	1,28418
59,51468	1,27930
59,52468	1,28418
59,53467	1,27930
59,54467	1,28418
59,55466	1,28418
59,56465	1,27930
59,57465	1,27930
59,58464	1,28418
59,59464	1,27930
59,60463	1,28418
59,61462	1,28418
59,62462	1,28418
59,63461	1,28418
59,64461	1,27930
59,65460	1,28418
59,66459	1,28418
59,67459	1,28906
59,68458	1,28418
59,69458	1,28418
59,70457	1,28418
59,71456	1,27930
59,72456	1,28906
59,73455	1,28906
59,74455	1,27930
59,75454	1,28418
59,76453	1,27930
59,77453	1,28906
59,78452	1,28906
59,79452	1,27930
59,80451	1,28418
59,81450	1,28418
59,82450	1,27930
59,83449	1,28418
59,84449	1,28418
59,85448	1,28906
59,86448	1,28418
59,87447	1,28418
59,88446	1,28906
59,89446	1,28906
59,90445	1,28418
59,91445	1,28418
59,92444	1,29395
59,93443	1,28906
59,94443	1,27930
59,95442	1,28418
59,96442	1,28418
59,97441	1,28418
59,98440	1,28418
59,99440	1,27930
60,00439	1,28418
60,01439	1,28906
60,02438	1,28418
60,03437	1,28418
60,04437	1,28906
60,05436	1,28418
60,06436	1,27441
60,07435	1,28906
60,08434	1,28418
60,09434	1,28906
60,10433	1,28418
60,11433	1,29395
60,12432	1,28418
60,13432	1,28418
60,14431	1,28418
60,15430	1,28418
60,16430	1,28906
60,17429	1,27930
60,18429	1,28418
60,19428	1,28418
60,20427	1,27441
60,21427	1,28418
60,22426	1,28418
60,23426	1,28906
60,24425	1,28418
60,25424	1,28418
60,26424	1,28906
60,27423	1,28418
60,28423	1,28418
60,29422	1,28906
60,30421	1,28418
60,31421	1,28418
60,32420	1,27930
60,33420	1,27930
60,34419	1,28906
60,35418	1,27930
60,36418	1,28418
60,37417	1,28418
60,38417	1,28418
60,39416	1,28418
60,40415	1,28418
60,41415	1,28418
60,42414	1,28418
60,43414	1,28906
60,44413	1,27930
60,45413	1,27930
60,46412	1,27930
60,47411	1,28418
60,48411	1,28418
60,49410	1,28906
60,50410	1,27930
60,51409	1,28418
60,52408	1,28418
60,53408	1,28418
60,54407	1,28906
60,55407	1,27930
60,56406	1,28418
60,57405	1,27930
60,58405	1,28418
60,59404	1,28906
60,60404	1,28418
60,61403	1,28418
60,62402	1,28906
60,63402	1,28906
60,64401	1,29395
60,65401	1,28906
60,66400	1,28418
60,67399	1,28418
60,68399	1,28418
60,69398	1,28418
60,70398	1,28418
60,71397	1,28418
60,72397	1,29883
60,73396	1,27930
60,74395	1,28418
60,75395	1,28418
60,76394	1,28418
60,77394	1,28906
60,78393	1,27930
60,79392	1,29395
60,80392	1,28418
60,81391	1,28418
60,82391	1,28418
60,83390	1,29395
60,84389	1,28906
60,85389	1,28906
60,86388	1,28418
60,87388	1,27930
60,88387	1,28418
60,89386	1,28418
60,90386	1,28418
60,91385	1,28418
60,92385	1,28906
60,93384	1,28418
60,94383	1,28418
60,95383	1,28418
60,96382	1,28418
60,97382	1,28418
60,98381	1,28418
60,99381	1,27930
61,00380	1,29395
61,01379	1,28418
61,02379	1,27930
61,03378	1,28906
61,04378	1,28418
61,05377	1,28906
61,06376	1,28906
61,07376	1,28418
61,08375	1,28418
61,09375	1,28906
61,10374	1,28418
61,11373	1,28418
61,12373	1,28418
61,13372	1,27930
61,14372	1,28906
61,15371	1,28906
61,16370	1,28418
61,17370	1,28418
61,18369	1,28418
61,19369	1,28418
61,20368	1,28906
61,21367	1,28418
61,22367	1,28418
61,23366	1,27930
61,24366	1,28418
61,25365	1,28418
61,26364	1,28906
61,27364	1,28418
61,28363	1,27930
61,29363	1,28418
61,30362	1,28418
61,31362	1,28418
61,32361	1,28418
61,33360	1,27930
61,34360	1,28906
61,35359	1,28418
61,36359	1,28906
61,37358	1,28418
61,38357	1,28418
61,39357	1,28906
61,40356	1,27930
61,41356	1,28418
61,42355	1,28906
61,43354	1,28418
61,44354	1,28418
61,45353	1,28418
61,46353	1,27930
61,47352	1,29395
61,48351	1,28418
61,49351	1,28906
61,50350	1,27930
61,51350	1,28906
61,52349	1,28906
61,53348	1,28418
61,54348	1,28906
61,55347	1,28418
61,56347	1,28418
61,57346	1,28418
61,58346	1,27930
61,59345	1,28906
61,60344	1,28418
61,61344	1,28418
61,62343	1,29395
61,63343	1,28418
61,64342	1,28418
61,65341	1,28906
61,66341	1,28418
61,67340	1,28418
61,68340	1,28418
61,69339	1,28418
61,70338	1,28418
61,71338	1,28418
61,72337	1,28906
61,73337	1,29395
61,74336	1,28418
61,75335	1,28906
61,76335	1,28418
61,77334	1,28906
61,78334	1,28418
61,79333	1,28906
61,80332	1,28906
61,81332	1,28418
61,82331	1,28418
61,83331	1,28906
61,84330	1,28418
61,85330	1,27930
61,86329	1,29395
61,87328	1,28418
61,88328	1,28418
61,89327	1,28418
61,90327	1,28906
61,91326	1,27930
61,92325	1,28418
61,93325	1,28906
61,94324	1,28418
61,95324	1,28906
61,96323	1,27930
61,97322	1,28418
61,98322	1,29883
61,99321	1,28418
62,00321	1,28418
62,01320	1,28418
62,02319	1,28418
62,03319	1,29395
62,04318	1,27930
62,05318	1,28906
62,06317	1,28418
62,07316	1,28418
62,08316	1,28418
62,09315	1,28418
62,10315	1,28418
62,11314	1,29395
62,12313	1,28418
62,13313	1,28418
62,14312	1,28418
62,15312	1,28418
62,16311	1,28418
62,17311	1,28906
62,18310	1,28418
62,19309	1,27930
62,20309	1,28418
62,21308	1,28418
62,22308	1,27930
62,23307	1,28418
62,24306	1,28418
62,25306	1,27930
62,26305	1,28906
62,27305	1,27930
62,28304	1,28418
62,29303	1,28418
62,30303	1,28418
62,31302	1,28418
62,32302	1,28418
62,33301	1,28418
62,34300	1,28418
62,35300	1,28418
62,36299	1,28418
62,37299	1,27930
62,38298	1,28418
62,39297	1,28418
62,40297	1,28418
62,41296	1,28906
62,42296	1,28418
62,43295	1,28418
62,44295	1,28418
62,45294	1,28418
62,46293	1,28418
62,47293	1,27930
62,48292	1,28906
62,49292	1,28418
62,50291	1,28418
62,51290	1,28418
62,52290	1,28418
62,53289	1,28418
62,54289	1,28418
62,55288	1,28906
62,56287	1,28906
62,57287	1,28906
62,58286	1,27930
62,59286	1,28418
62,60285	1,28418
62,61284	1,28418
62,62284	1,28418
62,63283	1,28418
62,64283	1,28418
62,65282	1,27930
62,66281	1,27930
62,67281	1,28418
62,68280	1,28418
62,69280	1,28418
62,70279	1,28906
62,71279	1,28418
62,72278	1,28418
62,73277	1,28418
62,74277	1,28418
62,75276	1,28418
62,76276	1,28418
62,77275	1,28418
62,78274	1,27930
62,79274	1,28906
62,80273	1,28906
62,81273	1,28418
62,82272	1,29395
62,83271	1,27930
62,84271	1,28418
62,85270	1,28418
62,86270	1,28418
62,87269	1,27930
62,88268	1,28418
62,89268	1,27930
62,90267	1,28418
62,91267	1,27930
62,92266	1,28906
62,93265	1,28418
62,94265	1,28418
62,95264	1,27930
62,96264	1,28906
62,97263	1,28418
62,98262	1,28906
62,99262	1,27930
63,00261	1,28418
63,01261	1,28906
63,02260	1,28418
63,03260	1,28906
63,04259	1,28906
63,05258	1,28906
63,06258	1,28418
63,07257	1,28418
63,08257	1,27930
63,09256	1,27930
63,10255	1,28418
63,11255	1,28418
63,12254	1,27930
63,13254	1,28906
63,14253	1,28418
63,15252	1,27930
63,16252	1,28906
63,17251	1,28418
63,18251	1,28418
63,19250	1,28906
63,20249	1,27930
63,21249	1,28906
63,22248	1,28418
63,23248	1,28418
63,24247	1,28418
63,25246	1,28418
63,26246	1,28418
63,27245	1,28418
63,28245	1,27441
63,29244	1,28418
63,30244	1,28906
63,31243	1,28418
63,32242	1,28906
63,33242	1,27930
63,34241	1,28906
63,35241	1,28418
63,36240	1,28418
63,37239	1,28418
63,38239	1,27930
63,39238	1,28906
63,40238	1,28418
63,41237	1,28418
63,42236	1,28418
63,43236	1,27930
63,44235	1,28906
63,45235	1,28418
63,46234	1,28418
63,47233	1,28906
63,48233	1,27930
63,49232	1,28418
63,50232	1,28418
63,51231	1,27930
63,52230	1,28418
63,53230	1,27930
63,54229	1,28418
63,55229	1,28418
63,56228	1,28418
63,57227	1,28418
63,58227	1,27930
63,59226	1,27930
63,60226	1,28418
63,61225	1,28418
63,62225	1,28906
63,63224	1,28418
63,64223	1,28418
63,65223	1,28906
63,66222	1,28418
63,67222	1,28418
63,68221	1,27930
63,69220	1,28418
63,70220	1,28418
63,71219	1,28906
63,72219	1,27930
63,73218	1,28906
63,74217	1,28906
63,75217	1,28418
63,76216	1,28418
63,77216	1,28418
63,78215	1,28418
63,79214	1,28418
63,80214	1,28418
63,81213	1,28418
63,82213	1,28418
63,83212	1,28906
63,84211	1,28418
63,85211	1,29395
63,86210	1,28418
63,87210	1,28418
63,88209	1,28418
63,89209	1,28418
63,90208	1,28906
63,91207	1,28418
63,92207	1,28418
63,93206	1,28418
63,94206	1,28418
63,95205	1,28418
63,96204	1,29395
63,97204	1,28418
63,98203	1,28418
63,99203	1,28418
64,00202	1,28418
64,01201	1,27930
64,02201	1,28418
64,03200	1,28906
64,04200	1,28418
64,05199	1,27930
64,06198	1,28906
64,07198	1,27441
64,08197	1,28906
64,09197	1,28418
64,10196	1,28418
64,11195	1,28418
64,12195	1,28418
64,13194	1,28906
64,14194	1,28906
64,15193	1,28418
64,16193	1,28418
64,17192	1,28418
64,18191	1,28906
64,19191	1,28418
64,20190	1,27930
64,21190	1,28906
64,22189	1,28418
64,23188	1,28418
64,24188	1,27930
64,25187	1,28418
64,26187	1,28418
64,27186	1,28906
64,28185	1,28418
64,29185	1,28418
64,30184	1,27930
64,31184	1,28418
64,32183	1,29883
64,33182	1,28418
64,34182	1,28418
64,35181	1,28418
64,36181	1,27930
64,37180	1,28906
64,38179	1,27930
64,39179	1,28906
64,40178	1,28418
64,41178	1,28906
64,42177	1,28418
64,43176	1,28418
64,44176	1,28906
64,45175	1,28418
64,46175	1,28418
64,47174	1,28418
64,48174	1,28418
64,49173	1,28418
64,50172	1,28418
64,51172	1,28906
64,52171	1,28418
64,53171	1,28418
64,54170	1,28418
64,55169	1,27930
64,56169	1,29395
64,57168	1,28418
64,58168	1,28418
64,59167	1,28906
64,60166	1,28418
64,61166	1,28418
64,62165	1,28906
64,63165	1,28418
64,64164	1,28418
64,65163	1,28906
64,66163	1,27930
64,67162	1,28906
64,68162	1,28418
64,69161	1,27930
64,70160	1,28418
64,71160	1,28418
64,72159	1,28906
64,73159	1,28906
64,74158	1,27930
64,75158	1,28906
64,76157	1,28418
64,77156	1,28418
64,78156	1,28418
64,79155	1,28418
64,80155	1,28906
64,81154	1,28418
64,82153	1,28418
64,83153	1,28906
64,84152	1,27930
64,85152	1,29395
64,86151	1,28418
64,87150	1,28418
64,88150	1,28418
64,89149	1,27930
64,90149	1,28418
64,91148	1,28418
64,92147	1,28418
64,93147	1,27930
64,94146	1,28418
64,95146	1,28906
64,96145	1,28418
64,97144	1,28418
64,98144	1,28418
64,99143	1,28418
65,00143	1,27930
65,01142	1,27930
65,02142	1,29395
65,03141	1,28418
65,04140	1,27930
65,05140	1,28418
65,06139	1,28906
65,07139	1,28418
65,08138	1,28418
65,09137	1,28906
65,10137	1,28906
65,11136	1,28906
65,12136	1,28418
65,13135	1,28418
65,14134	1,28418
65,15134	1,27930
65,16133	1,28418
65,17133	1,27930
65,18132	1,28906
65,19131	1,28906
65,20131	1,28418
65,21130	1,29395
65,22130	1,28418
65,23129	1,28418
65,24128	1,28906
65,25128	1,28418
65,26127	1,27930
65,27127	1,28418
65,28126	1,28906
65,29125	1,28418
65,30125	1,28418
65,31124	1,28906
65,32124	1,28418
65,33123	1,28418
65,34123	1,28418
65,35122	1,28906
65,36121	1,28418
65,37121	1,28418
65,38120	1,28418
65,39120	1,28418
65,40119	1,27930
65,41118	1,28906
65,42118	1,28418
65,43117	1,28418
65,44117	1,28418
65,45116	1,28906
65,46115	1,28418
65,47115	1,28418
65,48114	1,27930
65,49114	1,27930
65,50113	1,27930
65,51112	1,28906
65,52112	1,28418
65,53111	1,28418
65,54111	1,27930
65,55110	1,28418
65,56109	1,27930
65,57109	1,28418
65,58108	1,28906
65,59108	1,27930
65,60107	1,28906
65,61107	1,27930
65,62106	1,28906
65,63105	1,28906
65,64105	1,27930
65,65104	1,28418
65,66104	1,27930
65,67103	1,28418
65,68102	1,27930
65,69102	1,27930
65,70101	1,28418
65,71101	1,27930
65,72100	1,28418
65,73099	1,28418
65,74099	1,27441
65,75098	1,28418
65,76098	1,28418
65,77097	1,28418
65,78096	1,28418
65,79096	1,28418
65,80095	1,28906
65,81095	1,27930
65,82094	1,28418
65,83093	1,27930
65,84093	1,28418
65,85092	1,28418
65,86092	1,27930
65,87091	1,27930
65,88090	1,28906
65,89090	1,28418
65,90089	1,28418
65,91089	1,28418
65,92088	1,28906
65,93088	1,28906
65,94087	1,28418
65,95086	1,28418
65,96086	1,28418
65,97085	1,28906
65,98085	1,27930
65,99084	1,28418
66,00083	1,27441
66,01083	1,28418
66,02082	1,28906
66,03082	1,28418
66,04081	1,28418
66,05080	1,28418
66,06080	1,28418
66,07079	1,28906
66,08079	1,28906
66,09078	1,27930
66,10077	1,28418
66,11077	1,28906
66,12076	1,28418
66,13076	1,28418
66,14075	1,28906
66,15074	1,28418
66,16074	1,28906
66,17073	1,28418
66,18073	1,27930
66,19072	1,28418
66,20072	1,27930
66,21071	1,28418
66,22070	1,28906
66,23070	1,28418
66,24069	1,28906
66,25069	1,28906
66,26068	1,28418
66,27067	1,27441
66,28067	1,28418
66,29066	1,28906
66,30066	1,28418
66,31065	1,27930
66,32064	1,28418
66,33064	1,28418
66,34063	1,28906
66,35063	1,28906
66,36062	1,28418
66,37061	1,28906
66,38061	1,28418
66,39060	1,28418
66,40060	1,28418
66,41059	1,28418
66,42058	1,28418
66,43058	1,29395
66,44057	1,28418
66,45057	1,27930
66,46056	1,28418
66,47056	1,28906
66,48055	1,27930
66,49054	1,28906
66,50054	1,27930
66,51053	1,27441
66,52053	1,28906
66,53052	1,27930
66,54051	1,28418
66,55051	1,28418
66,56050	1,28418
66,57050	1,28418
66,58049	1,28418
66,59048	1,28906
66,60048	1,28906
66,61047	1,27441
66,62047	1,28906
66,63046	1,28906
66,64045	1,28418
66,65045	1,28906
66,66044	1,28906
66,67044	1,28418
66,68043	1,28418
66,69042	1,27930
66,70042	1,28418
66,71041	1,28418
66,72041	1,28418
66,73040	1,28906
66,74039	1,28418
66,75039	1,28418
66,76038	1,28906
66,77038	1,28418
66,78037	1,28418
66,79037	1,27930
66,80036	1,28418
66,81035	1,27930
66,82035	1,28418
66,83034	1,28418
66,84034	1,28418
66,85033	1,28906
66,86032	1,28418
66,87032	1,28418
66,88031	1,28906
66,89031	1,28418
66,90030	1,28418
66,91029	1,28418
66,92029	1,28906
66,93028	1,28418
66,94028	1,28418
66,95027	1,28418
66,96026	1,28906
66,97026	1,28418
66,98025	1,28418
66,99025	1,27930
67,00024	1,28418
67,01023	1,28906
67,02023	1,28418
67,03022	1,28418
67,04022	1,28906
67,05021	1,28418
67,06021	1,28418
67,07020	1,28418
67,08019	1,28418
67,09019	1,28418
67,10018	1,27441
67,11018	1,28906
67,12017	1,27930
67,13016	1,28418
67,14016	1,28418
67,15015	1,28906
67,16015	1,27930
67,17014	1,28418
67,18013	1,27930
67,19013	1,28418
67,20012	1,27441
67,21012	1,28418
67,22011	1,28418
67,23010	1,28418
67,24010	1,28418
67,25009	1,27930
67,26009	1,28906
67,27008	1,28418
67,28007	1,28418
67,29007	1,28418
67,30006	1,28418
67,31006	1,27930
67,32005	1,28418
67,33005	1,28418
67,34004	1,28418
67,35003	1,27930
67,36003	1,28418
67,37002	1,28418
67,38002	1,28418
67,39001	1,28418
67,40000	1,28418
67,41000	1,28418
67,41999	1,28418
67,42999	1,28418
67,43998	1,28906
67,44997	1,28418
67,45997	1,28418
67,46996	1,28418
67,47996	1,28418
67,48995	1,28906
67,49994	1,29395
67,50994	1,28906
67,51993	1,28418
67,52993	1,27930
67,53992	1,27930
67,54991	1,28418
67,55991	1,27930
67,56990	1,28906
67,57990	1,28418
67,58989	1,28418
67,59988	1,27930
67,60988	1,27930
67,61987	1,28418
67,62987	1,28418
67,63986	1,28418
67,64986	1,28906
67,65985	1,28418
67,66984	1,28418
67,67984	1,27930
67,68983	1,28418
67,69983	1,28418
67,70982	1,28418
67,71981	1,28418
67,72981	1,28418
67,73980	1,28418
67,74980	1,28418
67,75979	1,28418
67,76978	1,28906
67,77978	1,28906
67,78977	1,29395
67,79977	1,29883
67,80976	1,28906
67,81975	1,28418
67,82975	1,28418
67,83974	1,28418
67,84974	1,28906
67,85973	1,28418
67,86972	1,28418
67,87972	1,28906
67,88971	1,27930
67,89971	1,28418
67,90970	1,28906
67,91970	1,28418
67,92969	1,28906
67,93968	1,28418
67,94968	1,28418
67,95967	1,28418
67,96967	1,28418
67,97966	1,28906
67,98965	1,28418
67,99965	1,28418
68,00964	1,28418
68,01964	1,28418
68,02963	1,28418
68,03962	1,28418
68,04962	1,28418
68,05961	1,28906
68,06961	1,28418
68,07960	1,28418
68,08959	1,29395
68,09959	1,28418
68,10958	1,28906
68,11958	1,28418
68,12957	1,28906
68,13956	1,27930
68,14956	1,28418
68,15955	1,28418
68,16955	1,28418
68,17954	1,28418
68,18953	1,28906
68,19953	1,28418
68,20952	1,28418
68,21952	1,28418
68,22951	1,27930
68,23951	1,28418
68,24950	1,27930
68,25949	1,28418
68,26949	1,28418
68,27948	1,29395
68,28948	1,28418
68,29947	1,28906
68,30946	1,28418
68,31946	1,28418
68,32945	1,28418
68,33945	1,28418
68,34944	1,28906
68,35943	1,28418
68,36943	1,27930
68,37942	1,28418
68,38942	1,28418
68,39941	1,28418
68,40940	1,27930
68,41940	1,27930
68,42939	1,27930
68,43939	1,28418
68,44938	1,28418
68,45937	1,28418
68,46937	1,28906
68,47936	1,27930
68,48936	1,28418
68,49935	1,28418
68,50935	1,27930
68,51934	1,29395
68,52933	1,28418
68,53933	1,28418
68,54932	1,27930
68,55932	1,28418
68,56931	1,28418
68,57930	1,28418
68,58930	1,28418
68,59929	1,28906
68,60929	1,28418
68,61928	1,28418
68,62927	1,28418
68,63927	1,28418
68,64926	1,28418
68,65926	1,28418
68,66925	1,28906
68,67924	1,28418
68,68924	1,27930
68,69923	1,28418
68,70923	1,28418
68,71922	1,27930
68,72921	1,28418
68,73921	1,27930
68,74920	1,28906
68,75920	1,28418
68,76919	1,29395
68,77919	1,28418
68,78918	1,27930
68,79917	1,28418
68,80917	1,28418
68,81916	1,28418
68,82916	1,28906
68,83915	1,27930
68,84914	1,28906
68,85914	1,28418
68,86913	1,28906
68,87913	1,27930
68,88912	1,27930
68,89911	1,28418
68,90911	1,29395
68,91910	1,27441
68,92910	1,28906
68,93909	1,27930
68,94908	1,28418
68,95908	1,28906
68,96907	1,27930
68,97907	1,28418
68,98906	1,27930
68,99905	1,28418
69,00905	1,28418
69,01904	1,28418
69,02904	1,27930
69,03903	1,28418
69,04902	1,28418
69,05902	1,28418
69,06901	1,28418
69,07901	1,28418
69,08900	1,29395
69,09900	1,28418
69,10899	1,28906
69,11898	1,28418
69,12898	1,28418
69,13897	1,28418
69,14897	1,27930
69,15896	1,28418
69,16895	1,28418
69,17895	1,28418
69,18894	1,28418
69,19894	1,27930
69,20893	1,28906
69,21892	1,28418
69,22892	1,28906
69,23891	1,28418
69,24891	1,28418
69,25890	1,28418
69,26889	1,29395
69,27889	1,28418
69,28888	1,28418
69,29888	1,27930
69,30887	1,28906
69,31886	1,28418
69,32886	1,27930
69,33885	1,28418
69,34885	1,27930
69,35884	1,28418
69,36884	1,28906
69,37883	1,28418
69,38882	1,28418
69,39882	1,28418
69,40881	1,28418
69,41881	1,28418
69,42880	1,28418
69,43879	1,28906
69,44879	1,27930
69,45878	1,28418
69,46878	1,28418
69,47877	1,29395
69,48876	1,28906
69,49876	1,28418
69,50875	1,28906
69,51875	1,29395
69,52874	1,28418
69,53873	1,28418
69,54873	1,28418
69,55872	1,29395
69,56872	1,28418
69,57871	1,28906
69,58870	1,27930
69,59870	1,28906
69,60869	1,28418
69,61869	1,28418
69,62868	1,28418
69,63868	1,28418
69,64867	1,28418
69,65866	1,28418
69,66866	1,28418
69,67865	1,28418
69,68865	1,27930
69,69864	1,28906
69,70863	1,28418
69,71863	1,28418
69,72862	1,28418
69,73862	1,28906
69,74861	1,28906
69,75860	1,28418
69,76860	1,28906
69,77859	1,28418
69,78859	1,27930
69,79858	1,28418
69,80857	1,28418
69,81857	1,28418
69,82856	1,28418
69,83856	1,27441
69,84855	1,28906
69,85854	1,28418
69,86854	1,28418
69,87853	1,29395
69,88853	1,28418
69,89852	1,28418
69,90851	1,28418
69,91851	1,28418
69,92850	1,28418
69,93850	1,28418
69,94849	1,28418
69,95849	1,28418
69,96848	1,29395
69,97847	1,28906
69,98847	1,29395
69,99846	1,28906
70,00846	1,28418
70,01845	1,29395
70,02844	1,27930
70,03844	1,27930
70,04843	1,29395
70,05843	1,28418
70,06842	1,28418
70,07841	1,28418
70,08841	1,28418
70,09840	1,28418
70,10840	1,28418
70,11839	1,28418
70,12838	1,28906
70,13838	1,28906
70,14837	1,27930
70,15837	1,28418
70,16836	1,28418
70,17835	1,29395
70,18835	1,29395
70,19834	1,27930
70,20834	1,28418
70,21833	1,28418
70,22833	1,28418
70,23832	1,27930
70,24831	1,28418
70,25831	1,28906
70,26830	1,28418
70,27830	1,28418
70,28829	1,28906
70,29828	1,27930
70,30828	1,28906
70,31827	1,28418
70,32827	1,27930
70,33826	1,28418
70,34825	1,28418
70,35825	1,28418
70,36824	1,28418
70,37824	1,27930
70,38823	1,28418
70,39822	1,27930
70,40822	1,28418
70,41821	1,27930
70,42821	1,28418
70,43820	1,28418
70,44819	1,28418
70,45819	1,28418
70,46818	1,28418
70,47818	1,28418
70,48817	1,28418
70,49817	1,28906
70,50816	1,28418
70,51815	1,28906
70,52815	1,28418
70,53814	1,28906
70,54814	1,28418
70,55813	1,28418
70,56812	1,28418
70,57812	1,28418
70,58811	1,27930
70,59811	1,29395
70,60810	1,27930
70,61809	1,28418
70,62809	1,27441
70,63808	1,28906
70,64808	1,28906
70,65807	1,28418
70,66806	1,28418
70,67806	1,29883
70,68805	1,28418
70,69805	1,28906
70,70804	1,27441
70,71803	1,28906
70,72803	1,27930
70,73802	1,28418
70,74802	1,28906
70,75801	1,28418
70,76800	1,28906
70,77800	1,28906
70,78799	1,29395
70,79799	1,27930
70,80798	1,28418
70,81798	1,28418
70,82797	1,28418
70,83796	1,27930
70,84796	1,28418
70,85795	1,28418
70,86795	1,28418
70,87794	1,28906
70,88793	1,28418
70,89793	1,28418
70,90792	1,28418
70,91792	1,27930
70,92791	1,28906
70,93790	1,27930
70,94790	1,28418
70,95789	1,28906
70,96789	1,27930
70,97788	1,28906
70,98787	1,28418
70,99787	1,28418
71,00786	1,28418
71,01786	1,27930
71,02785	1,28418
71,03784	1,28418
71,04784	1,27930
71,05783	1,28418
71,06783	1,28418
71,07782	1,28906
71,08782	1,28418
71,09781	1,28418
71,10780	1,28418
71,11780	1,28418
71,12779	1,28418
71,13779	1,27930
71,14778	1,28906
71,15777	1,28906
71,16777	1,28418
71,17776	1,27930
71,18776	1,28418
71,19775	1,28906
71,20774	1,28906
71,21774	1,28418
71,22773	1,28418
71,23773	1,28418
71,24772	1,28906
71,25771	1,28418
71,26771	1,28418
71,27770	1,28418
71,28770	1,28906
71,29769	1,28906
71,30768	1,27930
71,31768	1,28906
71,32767	1,27930
71,33767	1,28418
71,34766	1,28418
71,35765	1,28418
71,36765	1,28418
71,37764	1,28418
71,38764	1,28418
71,39763	1,28906
71,40763	1,28418
71,41762	1,28906
71,42761	1,28418
71,43761	1,29883
71,44760	1,28906
71,45760	1,29395
71,46759	1,29395
71,47758	1,27930
71,48758	1,28418
71,49757	1,28418
71,50757	1,28418
71,51756	1,29395
71,52755	1,28418
71,53755	1,28418
71,54754	1,28906
71,55754	1,27930
71,56753	1,28418
71,57752	1,28418
71,58752	1,28906
71,59751	1,28418
71,60751	1,28418
71,61750	1,28418
71,62749	1,28418
71,63749	1,28418
71,64748	1,28906
71,65748	1,28418
71,66747	1,28418
71,67747	1,28418
71,68746	1,27930
71,69745	1,28418
71,70745	1,28418
71,71744	1,28906
71,72744	1,28906
71,73743	1,28418
71,74742	1,28418
71,75742	1,28418
71,76741	1,28906
71,77741	1,28418
71,78740	1,28418
71,79739	1,28418
71,80739	1,28418
71,81738	1,28418
71,82738	1,28418
71,83737	1,28418
71,84736	1,28418
71,85736	1,28418
71,86735	1,28418
71,87735	1,28418
71,88734	1,28418
71,89733	1,28418
71,90733	1,28906
71,91732	1,28418
71,92732	1,27930
71,93731	1,28418
71,94731	1,28418
71,95730	1,28418
71,96729	1,28906
71,97729	1,27930
71,98728	1,28418
71,99728	1,27930
72,00727	1,28906
72,01726	1,27930
72,02726	1,28906
72,03725	1,28418
72,04725	1,27930
72,05724	1,28418
72,06723	1,28418
72,07723	1,28418
72,08722	1,28906
72,09722	1,27930
72,10721	1,28906
72,11720	1,28418
72,12720	1,29883
72,13719	1,28418
72,14719	1,28418
72,15718	1,28906
72,16717	1,28906
72,17717	1,28418
72,18716	1,28418
72,19716	1,28906
72,20715	1,28906
72,21714	1,27930
72,22714	1,29395
72,23713	1,29395
72,24713	1,28418
72,25712	1,28906
72,26712	1,28906
72,27711	1,28418
72,28710	1,28418
72,29710	1,28906
72,30709	1,28418
72,31709	1,28906
72,32708	1,28418
72,33707	1,28906
72,34707	1,28418
72,35706	1,27930
72,36706	1,28418
72,37705	1,28418
72,38704	1,28418
72,39704	1,28418
72,40703	1,28418
72,41703	1,28418
72,42702	1,27930
72,43701	1,28418
72,44701	1,28418
72,45700	1,28418
72,46700	1,28418
72,47699	1,28418
72,48698	1,27930
72,49698	1,28906
72,50697	1,29883
72,51697	1,28906
72,52696	1,28418
72,53696	1,28906
72,54695	1,28906
72,55694	1,27930
72,56694	1,28418
72,57693	1,28418
72,58693	1,28418
72,59692	1,28418
72,60691	1,28418
72,61691	1,28906
72,62690	1,28906
72,63690	1,28418
72,64689	1,28418
72,65688	1,28418
72,66688	1,28418
72,67687	1,28418
72,68687	1,28418
72,69686	1,28906
72,70685	1,28906
72,71685	1,28418
72,72684	1,27930
72,73684	1,27930
72,74683	1,28418
72,75682	1,28418
72,76682	1,28418
72,77681	1,28906
72,78681	1,27930
72,79680	1,28906
72,80680	1,27930
72,81679	1,28418
72,82678	1,28418
72,83678	1,28418
72,84677	1,28418
72,85677	1,27930
72,86676	1,28418
72,87675	1,28906
72,88675	1,28418
72,89674	1,28906
72,90674	1,27930
72,91673	1,28418
72,92672	1,28906
72,93672	1,28418
72,94671	1,27930
72,95671	1,28418
72,96670	1,27930
72,97669	1,28906
72,98669	1,28906
72,99668	1,28906
73,00668	1,28418
73,01667	1,28418
73,02666	1,28418
73,03666	1,28418
73,04665	1,28418
73,05665	1,28906
73,06664	1,28418
73,07663	1,28906
73,08663	1,28418
73,09662	1,28418
73,10662	1,29395
73,11661	1,27930
73,12661	1,28906
73,13660	1,28906
73,14659	1,28418
73,15659	1,28418
73,16658	1,28418
73,17658	1,28418
73,18657	1,28906
73,19656	1,28418
73,20656	1,28418
73,21655	1,28418
73,22655	1,28418
73,23654	1,28906
73,24653	1,28418
73,25653	1,28906
73,26652	1,28418
73,27652	1,28418
73,28651	1,28418
73,29650	1,28906
73,30650	1,28418
73,31649	1,28418
73,32649	1,27930
73,33648	1,28418
73,34647	1,28906
73,35647	1,28906
73,36646	1,28418
73,37646	1,28418
73,38645	1,28418
73,39645	1,29395
73,40644	1,27930
73,41643	1,28906
73,42643	1,28418
73,43642	1,28418
73,44642	1,28418
73,45641	1,28418
73,46640	1,28418
73,47640	1,28906
73,48639	1,28906
73,49639	1,28906
73,50638	1,27930
73,51637	1,28418
73,52637	1,27930
73,53636	1,28418
73,54636	1,28418
73,55635	1,27930
73,56634	1,28418
73,57634	1,28418
73,58633	1,28418
73,59633	1,28418
73,60632	1,28418
73,61631	1,29395
73,62631	1,28418
73,63630	1,28418
73,64630	1,28906
73,65629	1,28906
73,66628	1,28906
73,67628	1,28418
73,68627	1,28418
73,69627	1,28906
73,70626	1,28418
73,71626	1,28418
73,72625	1,28418
73,73624	1,28906
73,74624	1,28906
73,75623	1,27930
73,76623	1,28418
73,77622	1,28418
73,78621	1,28418
73,79621	1,28906
73,80620	1,28906
73,81620	1,28906
73,82619	1,28418
73,83618	1,28418
73,84618	1,28418
73,85617	1,28418
73,86617	1,28906
73,87616	1,28418
73,88615	1,28418
73,89615	1,28418
73,90614	1,28418
73,91614	1,28418
73,92613	1,28418
73,93612	1,28906
73,94612	1,28418
73,95611	1,28906
73,96611	1,27930
73,97610	1,28906
73,98610	1,28418
73,99609	1,28418
74,00608	1,29395
74,01608	1,28418
74,02607	1,28906
74,03607	1,28418
74,04606	1,27930
74,05605	1,28906
74,06605	1,27930
74,07604	1,28906
74,08604	1,28418
74,09603	1,28418
74,10602	1,29395
74,11602	1,28418
74,12601	1,28418
74,13601	1,28906
74,14600	1,28418
74,15599	1,28906
74,16599	1,28418
74,17598	1,28418
74,18598	1,28906
74,19597	1,27930
74,20596	1,28906
74,21596	1,28906
74,22595	1,27441
74,23595	1,28418
74,24594	1,28418
74,25594	1,28418
74,26593	1,28906
74,27592	1,28906
74,28592	1,28418
74,29591	1,27930
74,30591	1,28418
74,31590	1,28418
74,32589	1,28418
74,33589	1,28418
74,34588	1,28906
74,35588	1,28418
74,36587	1,28418
74,37586	1,28906
74,38586	1,28906
74,39585	1,28418
74,40585	1,27930
74,41584	1,28906
74,42583	1,28418
74,43583	1,28906
74,44582	1,28418
74,45582	1,27930
74,46581	1,28418
74,47580	1,28418
74,48580	1,28418
74,49579	1,28418
74,50579	1,28418
74,51578	1,28418
74,52577	1,28418
74,53577	1,28418
74,54576	1,28418
74,55576	1,27930
74,56575	1,28906
74,57575	1,28418
74,58574	1,27930
74,59573	1,28418
74,60573	1,28418
74,61572	1,28418
74,62572	1,28906
74,63571	1,27930
74,64570	1,28418
74,65570	1,28906
74,66569	1,28418
74,67569	1,28418
74,68568	1,28418
74,69567	1,28906
74,70567	1,28418
74,71566	1,28906
74,72566	1,28906
74,73565	1,28418
74,74564	1,28906
74,75564	1,28418
74,76563	1,28418
74,77563	1,28906
74,78562	1,28418
74,79561	1,28418
74,80561	1,28418
74,81560	1,27930
74,82560	1,29395
74,83559	1,27930
74,84559	1,28906
74,85558	1,28418
74,86557	1,28418
74,87557	1,28418
74,88556	1,27930
74,89556	1,28906
74,90555	1,28906
74,91554	1,28418
74,92554	1,28906
74,93553	1,28418
74,94553	1,28418
74,95552	1,28906
74,96551	1,28418
74,97551	1,28418
74,98550	1,28418
74,99550	1,28418
75,00549	1,28906
75,01548	1,28906
75,02548	1,28418
75,03547	1,28906
75,04547	1,28418
75,05546	1,28906
75,06545	1,28418
75,07545	1,28418
75,08544	1,28418
75,09544	1,28418
75,10543	1,28418
75,11543	1,28418
75,12542	1,28418
75,13541	1,28906
75,14541	1,27930
75,15540	1,28418
75,16540	1,28418
75,17539	1,28906
75,18538	1,28418
75,19538	1,28418
75,20537	1,28906
75,21537	1,28906
75,22536	1,28418
75,23535	1,28906
75,24535	1,27930
75,25534	1,29395
75,26534	1,28418
75,27533	1,28418
75,28532	1,28906
75,29532	1,28418
75,30531	1,27930
75,31531	1,28418
75,32530	1,28418
75,33529	1,28418
75,34529	1,28418
75,35528	1,28418
75,36528	1,28418
75,37527	1,28418
75,38526	1,28418
75,39526	1,27441
75,40525	1,28906
75,41525	1,27930
75,42524	1,28418
75,43524	1,28418
75,44523	1,28906
75,45522	1,28418
75,46522	1,28906
75,47521	1,28418
75,48521	1,28418
75,49520	1,28418
75,50519	1,28418
75,51519	1,28418
75,52518	1,28418
75,53518	1,28418
75,54517	1,28906
75,55516	1,27930
75,56516	1,28418
75,57515	1,29395
75,58515	1,27930
75,59514	1,28906
75,60513	1,29883
75,61513	1,28418
75,62512	1,27441
75,63512	1,28906
75,64511	1,28418
75,65510	1,28418
75,66510	1,28418
75,67509	1,28906
75,68509	1,27930
75,69508	1,28418
75,70508	1,28418
75,71507	1,28418
75,72506	1,28418
75,73506	1,28418
75,74505	1,28418
75,75505	1,28418
75,76504	1,28418
75,77503	1,28906
75,78503	1,28418
75,79502	1,29395
75,80502	1,28418
75,81501	1,28418
75,82500	1,28906
75,83500	1,27930
75,84499	1,28906
75,85499	1,27930
75,86498	1,28418
75,87497	1,28418
75,88497	1,28418
75,89496	1,28418
75,90496	1,27930
75,91495	1,27930
75,92494	1,28906
75,93494	1,28418
75,94493	1,28906
75,95493	1,28418
75,96492	1,28906
75,97491	1,28418
75,98491	1,28418
75,99490	1,27930
76,00490	1,28418
76,01489	1,27930
76,02489	1,28418
76,03488	1,29395
76,04487	1,28418
76,05487	1,28418
76,06486	1,28418
76,07486	1,28906
76,08485	1,28906
76,09484	1,28418
76,10484	1,28418
76,11483	1,28906
76,12483	1,28418
76,13482	1,28906
76,14481	1,27930
76,15481	1,28906
76,16480	1,28418
76,17480	1,28418
76,18479	1,28906
76,19478	1,28418
76,20478	1,28906
76,21477	1,28418
76,22477	1,28418
76,23476	1,29395
76,24475	1,28418
76,25475	1,28418
76,26474	1,28418
76,27474	1,28418
76,28473	1,29395
76,29473	1,28906
76,30472	1,27930
76,31471	1,29395
76,32471	1,27930
76,33470	1,28418
76,34470	1,28418
76,35469	1,28906
76,36468	1,28418
76,37468	1,28418
76,38467	1,28418
76,39467	1,28906
76,40466	1,28418
76,41465	1,28418
76,42465	1,28418
76,43464	1,28418
76,44464	1,29395
76,45463	1,28418
76,46462	1,28906
76,47462	1,28418
76,48461	1,28906
76,49461	1,28418
76,50460	1,28418
76,51459	1,28906
76,52459	1,28418
76,53458	1,28906
76,54458	1,29883
76,55457	1,28906
76,56457	1,28418
76,57456	1,28906
76,58455	1,28418
76,59455	1,28418
76,60454	1,28418
76,61454	1,28906
76,62453	1,28418
76,63452	1,28418
76,64452	1,28418
76,65451	1,28418
76,66451	1,28418
76,67450	1,28418
76,68449	1,29395
76,69449	1,28906
76,70448	1,28418
76,71448	1,28418
76,72447	1,28418
76,73446	1,28418
76,74446	1,28418
76,75445	1,28418
76,76445	1,27930
76,77444	1,28418
76,78443	1,28906
76,79443	1,28418
76,80442	1,27930
76,81442	1,28418
76,82441	1,28906
76,83440	1,28906
76,84440	1,28418
76,85439	1,28418
76,86439	1,28418
76,87438	1,28418
76,88438	1,27930
76,89437	1,28906
76,90436	1,28418
76,91436	1,28418
76,92435	1,28906
76,93435	1,28418
76,94434	1,28418
76,95433	1,28906
76,96433	1,28418
76,97432	1,28906
76,98432	1,28906
76,99431	1,28418
77,00430	1,28906
77,01430	1,28906
77,02429	1,28418
77,03429	1,28418
77,04428	1,28418
77,05427	1,27930
77,06427	1,27930
77,07426	1,28418
77,08426	1,28418
77,09425	1,28418
77,10424	1,28418
77,11424	1,28418
77,12423	1,27930
77,13423	1,28906
77,14422	1,28906
77,15422	1,28418
77,16421	1,28418
77,17420	1,27930
77,18420	1,28906
77,19419	1,28418
77,20419	1,28418
77,21418	1,28418
77,22417	1,27930
77,23417	1,28418
77,24416	1,28906
77,25416	1,28418
77,26415	1,28906
77,27414	1,28418
77,28414	1,28418
77,29413	1,27930
77,30413	1,28418
77,31412	1,28418
77,32411	1,27930
77,33411	1,28906
77,34410	1,27930
77,35410	1,28418
77,36409	1,27930
77,37408	1,28418
77,38408	1,28906
77,39407	1,28418
77,40407	1,28418
77,41406	1,28418
77,42406	1,28418
77,43405	1,28418
77,44404	1,28418
77,45404	1,28418
77,46403	1,28418
77,47403	1,28906
77,48402	1,28418
77,49401	1,29395
77,50401	1,27930
77,51400	1,28906
77,52400	1,28418
77,53399	1,28418
77,54398	1,28418
77,55398	1,28418
77,56397	1,28906
77,57397	1,28418
77,58396	1,27930
77,59395	1,27930
77,60395	1,28418
77,61394	1,28418
77,62394	1,29395
77,63393	1,28418
77,64392	1,28418
77,65392	1,28418
77,66391	1,28906
77,67391	1,29395
77,68390	1,28418
77,69389	1,28418
77,70389	1,29395
77,71388	1,28418
77,72388	1,28906
77,73387	1,28418
77,74387	1,28418
77,75386	1,28418
77,76385	1,28418
77,77385	1,28418
77,78384	1,27441
77,79384	1,28906
77,80383	1,29883
77,81382	1,28418
77,82382	1,28418
77,83381	1,27930
77,84381	1,28418
77,85380	1,28906
77,86379	1,27930
77,87379	1,28906
77,88378	1,28418
77,89378	1,28906
77,90377	1,27930
77,91376	1,28418
77,92376	1,28418
77,93375	1,28906
77,94375	1,28906
77,95374	1,28418
77,96373	1,27930
77,97373	1,28906
77,98372	1,28418
77,99372	1,27930
78,00371	1,28418
78,01371	1,28418
78,02370	1,28906
78,03369	1,28418
78,04369	1,27930
78,05368	1,28906
78,06368	1,27930
78,07367	1,28906
78,08366	1,28906
78,09366	1,28418
78,10365	1,28906
78,11365	1,28906
78,12364	1,28906
78,13363	1,28418
78,14363	1,27930
78,15362	1,28906
78,16362	1,29395
78,17361	1,27930
78,18360	1,28906
78,19360	1,28418
78,20359	1,29395
78,21359	1,28418
78,22358	1,27930
78,23357	1,28418
78,24357	1,28418
78,25356	1,28418
78,26356	1,28906
78,27355	1,27441
78,28355	1,28906
78,29354	1,28418
78,30353	1,28418
78,31353	1,28418
78,32352	1,28418
78,33352	1,28418
78,34351	1,28418
78,35350	1,28418
78,36350	1,28418
78,37349	1,27930
78,38349	1,28418
78,39348	1,28418
78,40347	1,28418
78,41347	1,28418
78,42346	1,28418
78,43346	1,28906
78,44345	1,28418
78,45344	1,28418
78,46344	1,27930
78,47343	1,28418
78,48343	1,28418
78,49342	1,28906
78,50341	1,27930
78,51341	1,28418
78,52340	1,29395
78,53340	1,28418
78,54339	1,28418
78,55338	1,28418
78,56338	1,28906
78,57337	1,28906
78,58337	1,27930
78,59336	1,28906
78,60336	1,27930
78,61335	1,28906
78,62334	1,28418
78,63334	1,28418
78,64333	1,28418
78,65333	1,27930
78,66332	1,28906
78,67331	1,28418
78,68331	1,28418
78,69330	1,28418
78,70330	1,28418
78,71329	1,28418
78,72328	1,28906
78,73328	1,28418
78,74327	1,28906
78,75327	1,28418
78,76326	1,29395
78,77325	1,28906
78,78325	1,28906
78,79324	1,28418
78,80324	1,27930
78,81323	1,27930
78,82322	1,28418
78,83322	1,28418
78,84321	1,28418
78,85321	1,29395
78,86320	1,27930
78,87320	1,28418
78,88319	1,28418
78,89318	1,28418
78,90318	1,27930
78,91317	1,27930
78,92317	1,28418
78,93316	1,28418
78,94315	1,28418
78,95315	1,28906
78,96314	1,27930
78,97314	1,28906
78,98313	1,27930
78,99312	1,28418
79,00312	1,29395
79,01311	1,28418
79,02311	1,28418
79,03310	1,28906
79,04309	1,28906
79,05309	1,28418
79,06308	1,28418
79,07308	1,27930
79,08307	1,28418
79,09306	1,28418
79,10306	1,28906
79,11305	1,28418
79,12305	1,28418
79,13304	1,28906
79,14303	1,28906
79,15303	1,28418
79,16302	1,28418
79,17302	1,28418
79,18301	1,28906
79,19301	1,28418
79,20300	1,28418
79,21299	1,29395
79,22299	1,28418
79,23298	1,28418
79,24298	1,28418
79,25297	1,28418
79,26296	1,28418
79,27296	1,28418
79,28295	1,28906
79,29295	1,28418
79,30294	1,28906
79,31293	1,28418
79,32293	1,28906
79,33292	1,28906
79,34292	1,28418
79,35291	1,27930
79,36290	1,28906
79,37290	1,27930
79,38289	1,29395
79,39289	1,28418
79,40288	1,28418
79,41287	1,28906
79,42287	1,28418
79,43286	1,28418
79,44286	1,28418
79,45285	1,27930
79,46285	1,28906
79,47284	1,27930
79,48283	1,28418
79,49283	1,28418
79,50282	1,28906
79,51282	1,28906
79,52281	1,28418
79,53280	1,28418
79,54280	1,28418
79,55279	1,28418
79,56279	1,28418
79,57278	1,28906
79,58277	1,27930
79,59277	1,27930
79,60276	1,28418
79,61276	1,28418
79,62275	1,28418
79,63274	1,27930
79,64274	1,28418
79,65273	1,28418
79,66273	1,28906
79,67272	1,28418
79,68271	1,28418
79,69271	1,28906
79,70270	1,28906
79,71270	1,28418
79,72269	1,27930
79,73269	1,28418
79,74268	1,28418
79,75267	1,28418
79,76267	1,28418
79,77266	1,28418
79,78266	1,28418
79,79265	1,28418
79,80264	1,27930
79,81264	1,27930
79,82263	1,28906
79,83263	1,28418
79,84262	1,28418
79,85261	1,28418
79,86261	1,27930
79,87260	1,28418
79,88260	1,28418
79,89259	1,28418
79,90258	1,28906
79,91258	1,27930
79,92257	1,28418
79,93257	1,28418
79,94256	1,28418
79,95255	1,28906
79,96255	1,27930
79,97254	1,28418
79,98254	1,28418
79,99253	1,28906
80,00252	1,29883
80,01252	1,27930
80,02251	1,27930
80,03251	1,28418
80,04250	1,28418
80,05250	1,28418
80,06249	1,27441
80,07248	1,28906
80,08248	1,28418
80,09247	1,28418
80,10247	1,28906
80,11246	1,27930
80,12245	1,28418
80,13245	1,28418
80,14244	1,28906
80,15244	1,28906
80,16243	1,28906
80,17242	1,28418
80,18242	1,29395
80,19241	1,28418
80,20241	1,28418
80,21240	1,28418
80,22239	1,28418
80,23239	1,28418
80,24238	1,28418
80,25238	1,28906
80,26237	1,27930
80,27236	1,28906
80,28236	1,28418
80,29235	1,28418
80,30235	1,27930
80,31234	1,28418
80,32234	1,28906
80,33233	1,28418
80,34232	1,28906
80,35232	1,27930
80,36231	1,28418
80,37231	1,27930
80,38230	1,28906
80,39229	1,28906
80,40229	1,28418
80,41228	1,28906
80,42228	1,27930
80,43227	1,27930
80,44226	1,28418
80,45226	1,28418
80,46225	1,27930
80,47225	1,28418
80,48224	1,28906
80,49223	1,28418
80,50223	1,28418
80,51222	1,28418
80,52222	1,28906
80,53221	1,28418
80,54220	1,29395
80,55220	1,28418
80,56219	1,28418
80,57219	1,28906
80,58218	1,28418
80,59218	1,28418
80,60217	1,29395
80,61216	1,28418
80,62216	1,28906
80,63215	1,27930
80,64215	1,28906
80,65214	1,29395
80,66213	1,28418
80,67213	1,28906
80,68212	1,27930
80,69212	1,28418
80,70211	1,28906
80,71210	1,28418
80,72210	1,28418
80,73209	1,27930
80,74209	1,29395
80,75208	1,27930
80,76207	1,27441
80,77207	1,28906
80,78206	1,28418
80,79206	1,29395
80,80205	1,28418
80,81204	1,28906
80,82204	1,28418
80,83203	1,29395
80,84203	1,28418
80,85202	1,27930
80,86201	1,28418
80,87201	1,28906
80,88200	1,29395
80,89200	1,28418
80,90199	1,29395
80,91199	1,29395
80,92198	1,28418
80,93197	1,28418
80,94197	1,28418
80,95196	1,28418
80,96196	1,28418
80,97195	1,27930
80,98194	1,29395
80,99194	1,28418
81,00193	1,28906
81,01193	1,28418
81,02192	1,28418
81,03191	1,28906
81,04191	1,27930
81,05190	1,28906
81,06190	1,28906
81,07189	1,28906
81,08188	1,28418
81,09188	1,26953
81,10187	1,28906
81,11187	1,28418
81,12186	1,28418
81,13185	1,28418
81,14185	1,28906
81,15184	1,28906
81,16184	1,28906
81,17183	1,28418
81,18183	1,28418
81,19182	1,28418
81,20181	1,28906
81,21181	1,28906
81,22180	1,28906
81,23180	1,28418
81,24179	1,28418
81,25178	1,29395
81,26178	1,28418
81,27177	1,28418
81,28177	1,28418
81,29176	1,28906
81,30175	1,28906
81,31175	1,28906
81,32174	1,28906
81,33174	1,28418
81,34173	1,28418
81,35172	1,28418
81,36172	1,28906
81,37171	1,28418
81,38171	1,28906
81,39170	1,28418
81,40169	1,28418
81,41169	1,28906
81,42168	1,28906
81,43168	1,27930
81,44167	1,28418
